SpotID IntegratedIntensity Omega(degrees) YCen(px) ZCen(px) IMax MinOme(degrees) MaxOme(degress) Radius(px) Theta(degrees) Eta(degrees) DeltaOmega NImgs RingNr GrainVolume GrainRadius PowderIntensity SigmaR SigmaEta NrPx NrPxTot
1.000000 47434.658102 179.250000 1402.999858 1855.999707 3750.000000 179.250000 179.250000 916.905886 5.195755 24.552557 0.250000 1.000000 4.000000 2167097.390374 80.278012 4740.838162 9.119593 0.569864 45.000000 45.000000
2.000000 47483.266438 175.000000 611.000155 1841.999708 3750.000000 175.000000 175.000000 917.235190 5.197580 -26.620922 0.250000 1.000000 4.000000 2339379.864393 82.351348 4740.838162 8.958039 0.571114 45.000000 45.000000
3.000000 47535.158454 174.000000 1400.999800 1702.999657 3750.000000 174.000000 174.000000 779.359597 4.429756 29.097447 0.250000 1.000000 3.000000 2554428.878614 84.801149 2361.430926 9.186331 0.112727 45.000000 45.000000
4.000000 47528.765326 173.250000 1396.999802 1704.999657 3750.000000 173.250000 173.250000 779.174809 4.428722 28.768913 0.250000 1.000000 3.000000 2527720.972884 84.504566 2361.430926 8.983318 0.112758 45.000000 45.000000
5.000000 42344.648014 173.250000 1799.999587 1030.999995 3750.000000 173.250000 173.250000 778.051642 4.422439 89.337225 0.250000 1.000000 3.000000 4680237.110400 103.767117 2361.430926 2.919873 0.099661 45.000000 45.000000
6.000000 94152.000053 172.625000 1800.499656 1035.999990 3750.000000 172.500000 172.750000 778.125610 4.422853 88.969082 0.500000 2.000000 3.000000 10405365.737885 135.432506 2361.430926 8.070978 0.594292 90.000000 90.000000
7.000000 47521.612530 170.500000 216.000292 1457.999834 3750.000000 170.500000 170.500000 916.368586 5.192777 -61.589142 0.250000 1.000000 4.000000 4597172.273353 103.149562 4740.838162 9.180514 0.573496 45.000000 45.000000
8.000000 91730.540319 169.750000 211.633543 1452.337268 13558.160566 169.750000 169.750000 917.542347 5.199283 -62.029896 0.250000 1.000000 4.000000 8910466.120220 128.608776 4740.838162 10.119276 0.507512 56.000000 56.000000
9.000000 14524.442252 169.750000 210.625238 1453.367647 11356.892326 169.750000 169.750000 918.916237 5.206898 -62.002641 0.250000 1.000000 4.000000 1410492.668877 69.570866 4740.838162 10.527499 0.029638 56.000000 56.000000
10.000000 47623.746895 168.750000 631.000357 636.000354 3750.000000 168.750000 168.750000 549.432841 3.135438 -134.631306 0.250000 1.000000 2.000000 3763017.816979 96.490055 1177.064788 9.080016 0.946869 45.000000 45.000000
11.000000 47558.424851 163.750000 1415.999790 350.000342 3750.000000 163.750000 163.750000 778.986120 4.427667 149.616499 0.250000 1.000000 3.000000 2658153.483461 85.933760 2361.430926 8.819729 0.667347 45.000000 45.000000
12.000000 47552.528998 163.250000 192.000278 542.000169 3750.000000 163.250000 163.250000 958.801010 5.427637 -120.041364 0.250000 1.000000 5.000000 4530864.553763 102.651230 1578.488392 9.196485 0.549558 45.000000 45.000000
13.000000 47565.500844 163.250000 1420.999787 353.000341 3750.000000 163.250000 163.250000 778.948890 4.427458 149.187620 0.250000 1.000000 3.000000 2692430.682479 86.301559 2361.430926 5.055677 0.676801 45.000000 45.000000
14.000000 47557.146123 162.500000 194.000278 538.000170 3750.000000 162.500000 162.500000 959.082570 5.429193 -120.308039 0.250000 1.000000 5.000000 4519041.712142 102.561866 1578.488392 9.174468 0.091590 45.000000 45.000000
15.000000 47551.243037 160.000000 611.000562 785.000340 3750.000000 160.000000 160.000000 474.435851 2.710203 -119.969568 0.250000 1.000000 1.000000 4586968.171654 103.073187 1565.589622 8.080517 0.185158 45.000000 45.000000
16.000000 47779.605541 160.000000 1411.999644 1407.999647 3750.000000 160.000000 160.000000 548.721650 3.131412 45.295337 0.250000 1.000000 2.000000 3770571.842958 96.554578 1177.064788 9.062510 0.445058 45.000000 45.000000
17.000000 47555.945413 159.250000 612.000561 783.000343 3750.000000 159.250000 159.250000 474.573889 2.710987 -120.239055 0.250000 1.000000 1.000000 4574923.412342 102.982889 1565.589622 9.198025 0.185099 45.000000 45.000000
18.000000 47522.213517 158.750000 1826.999708 586.000166 3750.000000 158.750000 158.750000 915.489151 5.187901 118.440635 0.250000 1.000000 4.000000 4595972.585697 103.140589 4740.838162 9.180858 0.574580 45.000000 45.000000
19.000000 47354.133048 158.000000 168.000295 687.000122 3750.000000 158.000000 158.000000 917.355119 5.198245 -111.418670 0.250000 1.000000 4.000000 4848631.916982 104.996995 4740.838162 9.046339 0.095872 45.000000 45.000000
20.000000 12552.812334 158.000000 1830.581528 592.480781 5129.500000 158.000000 158.000000 915.582245 5.188417 117.977279 0.250000 1.000000 4.000000 1219287.558230 66.273389 4740.838162 10.528078 0.036164 56.000000 56.000000
21.000000 82534.088199 158.000000 1831.622940 591.360659 11229.282937 158.000000 158.000000 917.027561 5.196429 118.008561 0.250000 1.000000 4.000000 8014322.651724 124.144096 4740.838162 1.143888 0.063923 56.000000 56.000000
22.000000 42498.588625 153.750000 1431.999420 1258.999670 3750.000000 153.750000 153.750000 473.569813 2.705285 59.969992 0.250000 1.000000 1.000000 4097090.830338 99.264889 1565.589622 1.494463 0.210422 45.000000 45.000000
23.000000 47556.986367 153.000000 1430.999438 1260.999655 3750.000000 153.000000 153.000000 473.710223 2.706082 59.700033 0.250000 1.000000 1.000000 4572203.904010 102.962480 1565.589622 9.198483 0.185435 45.000000 45.000000
24.000000 47482.010970 152.000000 1431.999846 202.000292 3750.000000 152.000000 152.000000 916.787541 5.195099 153.434949 0.250000 1.000000 4.000000 2334772.874471 82.297254 4740.838162 9.155417 0.572177 45.000000 45.000000
25.000000 47076.005698 151.500000 106.000289 987.000019 3750.000000 151.500000 151.500000 916.668134 5.194437 -92.188184 0.250000 1.000000 4.000000 5174149.078471 107.295978 4740.838162 6.177611 0.095931 45.000000 45.000000
26.000000 47076.000046 150.750000 106.000289 983.000021 3750.000000 150.750000 150.750000 916.829575 5.195332 -92.437976 0.250000 1.000000 4.000000 5173229.653469 107.289622 4740.838162 8.164708 0.493250 45.000000 45.000000
27.000000 47553.053263 150.750000 1850.999722 1501.999831 3750.000000 150.750000 150.750000 957.935476 5.422854 59.928693 0.250000 1.000000 5.000000 4529580.090486 102.641529 1578.488392 9.190301 0.550070 45.000000 45.000000
28.000000 47559.046986 149.750000 1847.999722 1506.999829 3750.000000 149.750000 149.750000 957.862399 5.422450 59.579948 0.250000 1.000000 5.000000 4514097.867195 102.524451 1578.488392 9.199328 0.091705 45.000000 45.000000
29.000000 47075.999843 148.000000 69.000263 1130.999957 3750.000000 148.000000 148.000000 959.212953 5.429913 -83.475112 0.250000 1.000000 5.000000 5148241.223536 107.116595 1578.488392 1.534824 0.321353 45.000000 45.000000
30.000000 47354.746748 146.750000 1874.999704 1356.999878 3750.000000 146.750000 146.750000 916.424254 5.193085 68.558499 0.250000 1.000000 4.000000 4847975.997683 104.992260 4740.838162 9.012046 0.095969 45.000000 45.000000
31.000000 47075.999474 145.250000 550.000531 1075.999913 3750.000000 145.250000 145.250000 475.078403 2.713851 -83.473354 0.250000 1.000000 1.000000 5208195.159175 107.530801 1565.589622 6.902716 0.264083 45.000000 45.000000
32.000000 47518.168666 141.000000 512.000492 1224.999794 3750.000000 141.000000 141.000000 548.915672 3.132511 -68.295506 0.250000 1.000000 2.000000 4902356.215252 105.383371 1177.064788 9.053893 0.159473 45.000000 45.000000
33.000000 47075.999700 141.000000 1936.999710 1056.999981 3750.000000 141.000000 141.000000 915.668864 5.188898 87.809427 0.250000 1.000000 4.000000 5174185.621982 107.296231 4740.838162 1.534790 0.471306 45.000000 45.000000
34.000000 47509.305582 140.500000 511.000492 1221.999797 3750.000000 140.500000 140.500000 548.744399 3.131541 -68.625151 0.250000 1.000000 2.000000 4912592.621170 105.456669 1177.064788 8.991096 0.159530 45.000000 45.000000
35.000000 47167.051932 140.250000 1936.999712 1061.999979 3750.000000 140.250000 140.250000 915.873611 5.190033 87.496861 0.250000 1.000000 4.000000 5183024.564876 107.357293 4740.838162 8.041974 0.506801 45.000000 45.000000
36.000000 47075.999873 139.750000 1492.999468 968.000088 3750.000000 139.750000 139.750000 474.084896 2.708210 96.540383 0.250000 1.000000 1.000000 5208076.460848 107.529984 1565.589622 6.965330 0.185492 45.000000 45.000000
37.000000 47075.998163 137.000000 1973.999737 913.000043 3750.000000 137.000000 137.000000 958.219437 5.424423 96.531682 0.250000 1.000000 5.000000 5148218.036567 107.116434 1578.488392 4.109333 0.503230 45.000000 45.000000
38.000000 47626.339962 136.750000 441.000209 312.000242 3750.000000 136.750000 136.750000 917.420521 5.198608 -140.706199 0.250000 1.000000 4.000000 3316849.285430 92.515048 4740.838162 9.176640 0.427403 45.000000 45.000000
39.000000 82682.873641 135.750000 443.029626 310.373851 26022.340266 135.750000 135.750000 917.397661 5.198481 -140.868618 0.250000 1.000000 4.000000 5738319.080013 111.061967 4740.838162 1.067830 0.064056 52.000000 52.000000
40.000000 13167.735187 135.750000 442.856263 311.406502 40690.277779 135.750000 135.750000 916.706380 5.194649 -140.819480 0.250000 1.000000 4.000000 914830.253399 60.221371 4740.838162 0.843402 0.041236 52.000000 52.000000
41.000000 47626.362005 134.250000 420.000283 1517.999754 3750.000000 134.250000 134.250000 780.012445 4.433408 -50.514199 0.250000 1.000000 3.000000 4062515.801936 98.984870 2361.430926 9.174240 0.112522 45.000000 45.000000
42.000000 47519.202367 134.250000 1530.999508 819.000207 3750.000000 134.250000 134.250000 547.986692 3.127251 111.743161 0.250000 1.000000 2.000000 4901169.251517 105.374865 1177.064788 9.054902 0.159743 45.000000 45.000000
43.000000 47353.974965 133.750000 1531.999505 822.000205 3750.000000 133.750000 133.750000 547.813302 3.126270 111.412968 0.250000 1.000000 2.000000 4895279.355349 105.332637 1177.064788 1.892158 0.160545 45.000000 45.000000
44.000000 47623.725236 132.750000 374.000213 1671.999787 3750.000000 132.750000 132.750000 917.825390 5.200852 -44.911717 0.250000 1.000000 4.000000 3697668.861460 95.928238 4740.838162 9.073213 0.566604 45.000000 45.000000
45.000000 47623.726944 132.500000 372.000213 1668.999787 3750.000000 132.500000 132.500000 917.119647 5.196940 -45.132527 0.250000 1.000000 4.000000 3711965.305349 96.051710 4740.838162 9.074318 0.547219 45.000000 45.000000
46.000000 47076.000550 130.750000 947.000036 107.000281 3750.000000 130.750000 130.750000 918.068342 5.202198 -175.314101 0.250000 1.000000 4.000000 421973.251131 46.529898 4740.838162 8.306707 0.518414 45.000000 45.000000
47.000000 47075.998365 126.000000 945.000037 108.000281 3750.000000 126.000000 126.000000 917.237418 5.197593 -175.184484 0.250000 1.000000 4.000000 433650.998667 46.955224 4740.838162 7.728922 0.418378 45.000000 45.000000
48.000000 47309.272679 124.250000 288.000348 758.000130 3750.000000 124.250000 124.250000 780.032961 4.433522 -109.782289 0.250000 1.000000 3.000000 4920530.845017 105.513440 2361.430926 8.999697 0.661052 45.000000 45.000000
49.000000 57049.228450 123.500000 289.888400 755.987285 8820.279663 123.500000 123.500000 778.941692 4.427418 -109.968612 0.250000 1.000000 3.000000 5926636.904695 112.263843 2361.430926 1.026584 0.220178 52.000000 52.000000
50.000000 37173.357343 123.500000 288.907307 756.023545 6024.000000 123.500000 123.500000 779.851506 4.432507 -109.941492 0.250000 1.000000 3.000000 3862442.225723 97.332481 2361.430926 0.992033 0.072770 52.000000 52.000000
51.000000 47626.363412 122.750000 1622.999717 526.000247 3750.000000 122.750000 122.750000 779.240922 4.429092 129.532556 0.250000 1.000000 3.000000 4059806.250872 98.962859 2361.430926 9.173644 0.674513 45.000000 45.000000
52.000000 47626.329282 120.500000 1601.999790 1731.999757 3750.000000 120.500000 120.500000 916.787550 5.195099 39.245434 0.250000 1.000000 4.000000 3313443.085853 92.483368 4740.838162 9.177232 0.451662 45.000000 45.000000
53.000000 95252.541808 119.375000 1599.499790 1733.499756 3750.000000 119.250000 119.500000 916.445530 5.193203 39.021075 0.500000 2.000000 4.000000 6593774.955368 116.327351 4740.838162 9.177620 0.573829 90.000000 90.000000
54.000000 47088.113041 118.750000 122.000273 1201.999939 3750.000000 118.750000 118.750000 917.823233 5.200840 -78.690068 0.250000 1.000000 4.000000 5078588.478079 106.631325 4740.838162 7.528940 0.095911 45.000000 45.000000
55.000000 94183.151518 118.250000 122.000273 1198.999940 7500.000000 118.250000 118.250000 917.239602 5.197605 -78.873825 0.250000 1.000000 4.000000 10164442.136116 134.379075 4740.838162 1.536595 0.540894 45.000000 45.000000
56.000000 47623.726374 118.000000 1668.999787 372.000214 3750.000000 118.000000 118.000000 917.119647 5.196940 135.132527 0.250000 1.000000 4.000000 3694825.813683 95.903646 4740.838162 7.481193 0.477761 45.000000 45.000000
57.000000 47623.724270 117.750000 1670.999786 375.000213 3750.000000 117.750000 117.750000 916.411178 5.193013 134.911581 0.250000 1.000000 4.000000 3709141.907194 96.027351 4740.838162 9.073193 0.567479 45.000000 45.000000
58.000000 47310.659417 114.750000 1753.999651 1285.999869 3750.000000 114.750000 114.750000 778.151284 4.422997 70.167870 0.250000 1.000000 3.000000 4919203.349823 105.503951 2361.430926 1.535302 0.662731 45.000000 45.000000
59.000000 47088.450652 114.000000 1752.999028 1287.999566 7495.479009 114.000000 114.000000 777.891604 4.421544 70.004313 0.250000 1.000000 3.000000 4891046.087881 105.302266 2361.430926 0.999500 0.073714 52.000000 52.000000
60.000000 47101.949185 114.000000 1753.999771 1288.000532 7508.016745 114.000000 114.000000 778.832426 4.426807 70.029421 0.250000 1.000000 3.000000 4893193.224689 105.317672 2361.430926 0.999679 0.073510 52.000000 52.000000
61.000000 47088.594889 108.250000 1919.999726 842.000061 3750.000000 108.250000 108.250000 915.862154 5.189969 101.334470 0.250000 1.000000 4.000000 5078292.490557 106.629253 4740.838162 1.536397 0.542334 45.000000 45.000000
62.000000 94183.609600 107.750000 1920.999727 845.000060 7500.000000 107.750000 107.750000 916.258417 5.192166 101.138241 0.250000 1.000000 4.000000 10164158.004630 134.377823 4740.838162 1.536593 0.096087 45.000000 45.000000
63.000000 86821.611577 103.750000 663.584955 1911.959616 12958.098945 103.750000 103.750000 959.421421 5.431065 -21.936214 0.250000 1.000000 5.000000 3568435.547412 94.797398 1578.488392 0.995568 0.065638 52.000000 52.000000
64.000000 55436.054162 103.536384 662.926443 1912.925909 17098.706125 103.500000 103.750000 960.604711 5.437604 -21.945396 0.500000 2.000000 5.000000 2278236.530568 81.627545 1578.488392 9.060132 0.091549 97.000000 97.000000
65.000000 47102.229590 103.000000 860.000074 260.000324 3750.000000 103.000000 103.000000 779.029834 4.427911 -167.997706 0.250000 1.000000 3.000000 1081828.258310 63.682959 2361.430926 8.700629 0.112992 45.000000 45.000000
66.000000 142157.568094 96.416671 840.666934 1460.999431 7500.000000 96.250000 96.500000 475.230901 2.714717 -22.517848 0.500000 2.000000 1.000000 6059585.078809 113.097089 1565.589622 9.073392 1.086983 90.000000 90.000000
67.000000 47625.493192 94.500000 300.000251 1588.999791 3750.000000 94.500000 94.500000 918.026362 5.201966 -51.856796 0.250000 1.000000 4.000000 4119363.029486 99.444435 4740.838162 9.189184 0.095614 45.000000 45.000000
68.000000 47624.947301 93.500000 312.000214 378.000201 3750.000000 93.500000 93.500000 958.559042 5.426300 -132.209357 0.250000 1.000000 5.000000 3882431.007428 97.500097 1578.488392 5.422810 0.315167 45.000000 45.000000
69.000000 47592.287634 93.500000 250.000284 526.000193 3750.000000 93.500000 93.500000 917.605236 5.199631 -122.720219 0.250000 1.000000 4.000000 4403724.641415 101.681946 4740.838162 8.454309 0.575079 45.000000 45.000000
70.000000 47586.887098 93.250000 362.000336 1438.999777 3750.000000 93.250000 93.250000 780.697361 4.437239 -57.714559 0.250000 1.000000 3.000000 4446443.632504 102.009682 2361.430926 9.208934 0.271415 45.000000 45.000000
71.000000 47075.999931 93.000000 64.000274 971.000024 3750.000000 93.000000 93.000000 959.356280 5.430705 -93.047316 0.250000 1.000000 5.000000 5174482.992128 107.298286 1578.488392 7.726030 0.456813 45.000000 45.000000
72.000000 47587.893668 93.000000 364.000336 1438.999776 3750.000000 93.000000 93.000000 779.007298 4.427785 -57.635988 0.250000 1.000000 3.000000 4442736.931934 101.981328 2361.430926 6.898050 0.112737 45.000000 45.000000
73.000000 47584.800982 92.500000 730.000316 557.000479 3750.000000 92.500000 92.500000 549.079566 3.133438 -147.872948 0.250000 1.000000 2.000000 2809524.869342 87.534937 1177.064788 9.208419 0.159949 45.000000 45.000000
74.000000 47591.658333 92.500000 250.000285 527.000192 3750.000000 92.500000 92.500000 917.065085 5.196637 -122.667656 0.250000 1.000000 4.000000 4406282.330060 101.701628 4740.838162 7.805732 0.392253 45.000000 45.000000
75.000000 47113.896009 92.250000 127.000277 823.000065 3750.000000 92.250000 92.250000 916.856302 5.195480 -102.535586 0.250000 1.000000 4.000000 5058502.375800 106.490561 4740.838162 8.725098 0.532024 45.000000 45.000000
76.000000 47075.999680 92.250000 65.000275 971.000024 3750.000000 92.250000 92.250000 958.357695 5.425187 -93.050494 0.250000 1.000000 5.000000 5174515.030793 107.298508 1578.488392 7.165638 0.462269 45.000000 45.000000
77.000000 47584.800982 91.250000 730.000316 557.000479 3750.000000 91.250000 91.250000 549.079566 3.133438 -147.872948 0.250000 1.000000 2.000000 2809524.869342 87.534937 1177.064788 9.208419 0.159949 45.000000 45.000000
78.000000 47075.999837 90.500000 547.000553 997.000048 3750.000000 90.500000 90.500000 475.656885 2.717136 -93.012785 0.250000 1.000000 1.000000 5234915.079032 107.714378 1565.589622 7.186819 0.984845 45.000000 45.000000
79.000000 47273.261254 90.500000 486.000460 1142.999891 3750.000000 90.500000 90.500000 549.487471 3.135748 -77.278926 0.250000 1.000000 2.000000 5120437.405730 106.923414 1177.064788 8.733523 0.342924 45.000000 45.000000
80.000000 47625.083010 89.750000 669.000434 704.000404 3750.000000 89.750000 89.750000 475.113078 2.714048 -132.014102 0.250000 1.000000 1.000000 3940009.241200 97.979724 1565.589622 9.135130 0.905627 45.000000 45.000000
81.000000 47076.000439 89.750000 548.000555 997.000048 3750.000000 89.750000 89.750000 474.658268 2.711466 -93.019130 0.250000 1.000000 1.000000 5234909.160886 107.714337 1565.589622 7.408618 0.990099 45.000000 45.000000
82.000000 47076.000500 84.250000 1494.999444 1046.999952 3750.000000 84.250000 84.250000 473.659658 2.705795 86.974499 0.250000 1.000000 1.000000 5234902.941999 107.714295 1565.589622 8.196977 0.185649 45.000000 45.000000
83.000000 47273.791238 84.000000 1556.999539 901.000109 3750.000000 84.000000 84.000000 548.512061 3.130226 102.744076 0.250000 1.000000 2.000000 5120057.287358 106.920768 1177.064788 8.734559 0.282105 45.000000 45.000000
84.000000 95175.800350 82.625000 1679.999664 605.000224 3750.000000 82.500000 82.750000 779.007298 4.427785 122.364012 0.500000 2.000000 3.000000 8884941.127363 128.485854 2361.430926 6.944273 0.112737 90.000000 90.000000
85.000000 47625.026989 82.500000 1373.999566 1339.999595 3750.000000 82.500000 82.500000 474.370569 2.709832 47.905056 0.250000 1.000000 1.000000 3935005.695095 97.938230 1565.589622 8.687376 0.184997 45.000000 45.000000
86.000000 142302.315050 82.416491 1201.999753 583.000569 7500.000000 82.250000 82.500000 474.468558 2.710389 157.705255 0.500000 2.000000 1.000000 6008727.771080 112.779796 1565.589622 9.022706 0.185361 90.000000 90.000000
87.000000 47075.999571 82.250000 1978.999725 1072.999976 3750.000000 82.250000 82.250000 958.357695 5.425187 86.949506 0.250000 1.000000 5.000000 5174515.018811 107.298507 1578.488392 7.165636 0.462269 45.000000 45.000000
88.000000 47114.201317 81.500000 1915.999723 1220.999935 3750.000000 81.500000 81.500000 915.880166 5.190069 77.450836 0.250000 1.000000 4.000000 5058311.828311 106.489224 4740.838162 6.722730 0.096105 45.000000 45.000000
89.000000 47075.999571 81.500000 1978.999725 1072.999976 3750.000000 81.500000 81.500000 958.357695 5.425187 86.949506 0.250000 1.000000 5.000000 5174515.018811 107.298507 1578.488392 7.165636 0.462269 45.000000 45.000000
90.000000 47625.544754 81.250000 1742.999750 455.000209 3750.000000 81.250000 81.250000 917.240100 5.197608 128.181785 0.250000 1.000000 4.000000 4117216.143088 99.427156 4740.838162 9.185879 0.095696 45.000000 45.000000
91.000000 42498.596843 81.000000 1792.999709 1517.999816 3750.000000 81.000000 81.000000 916.764075 5.194969 57.245998 0.250000 1.000000 4.000000 3930942.687402 97.904511 4740.838162 1.628179 0.097843 45.000000 45.000000
92.000000 47583.618147 80.750000 1312.999684 1486.999521 3750.000000 80.750000 80.750000 548.548421 3.130431 32.038597 0.250000 1.000000 2.000000 2802551.128163 87.462451 1177.064788 6.997335 0.160105 45.000000 45.000000
93.000000 47592.064938 80.250000 1792.999715 1516.999807 3750.000000 80.250000 80.250000 916.223428 5.191972 57.298590 0.250000 1.000000 4.000000 4404686.978238 101.689352 4740.838162 1.532739 0.575825 45.000000 45.000000
94.000000 47583.618147 79.500000 1312.999684 1486.999521 3750.000000 79.500000 79.500000 548.548421 3.130431 32.038597 0.250000 1.000000 2.000000 2802551.128163 87.462451 1177.064788 6.997335 0.160105 45.000000 45.000000
95.000000 47624.916608 78.750000 1730.999786 1665.999799 3750.000000 78.750000 78.750000 957.818583 5.422207 47.750454 0.250000 1.000000 5.000000 3879983.051839 97.479600 1578.488392 8.956631 0.091621 45.000000 45.000000
96.000000 91389.866729 75.250000 1379.586937 132.168794 44435.650302 75.250000 75.250000 958.993219 5.428699 158.106814 0.250000 1.000000 5.000000 3749200.149356 96.371808 1578.488392 0.882309 0.057634 52.000000 52.000000
97.000000 61110.514710 75.056231 1378.902886 131.126031 16647.512022 75.000000 75.250000 959.859058 5.433484 158.165337 0.500000 2.000000 5.000000 2499390.355943 84.187671 1578.488392 9.052516 0.117120 96.000000 97.000000
98.000000 47099.763349 67.250000 124.000275 1210.999937 3750.000000 67.250000 67.250000 917.673408 5.200009 -78.114558 0.250000 1.000000 4.000000 5069386.443599 106.566883 4740.838162 8.695178 0.095922 45.000000 45.000000
99.000000 93789.461189 66.750000 125.006644 1212.485941 13312.467832 66.750000 66.750000 916.996169 5.196255 -78.010749 0.250000 1.000000 4.000000 10090829.922199 134.053891 4740.838162 1.013634 0.084438 52.000000 52.000000
100.000000 771.167101 66.750000 124.708862 1212.868433 37123.582160 66.750000 66.750000 917.366964 5.198311 -77.991245 0.250000 1.000000 4.000000 82963.771505 27.056189 4740.838162 0.321347 0.604708 52.000000 52.000000
101.000000 47100.706514 62.250000 1182.999926 1783.999676 3750.000000 62.250000 62.250000 778.822497 4.426751 11.930336 0.250000 1.000000 3.000000 1075398.324108 63.556540 2361.430926 6.904369 0.113023 45.000000 45.000000
102.000000 47289.726333 60.250000 285.000348 767.000124 3750.000000 60.250000 60.250000 779.867569 4.432597 -109.085481 0.250000 1.000000 3.000000 4939661.601197 105.650007 2361.430926 8.902987 0.659605 45.000000 45.000000
103.000000 94568.291693 59.375003 284.000347 769.500112 3750.000000 59.250000 59.500000 779.838077 4.432432 -108.853159 0.500000 2.000000 3.000000 9891746.992005 133.166442 2361.430926 6.478048 0.658975 90.000000 90.000000
104.000000 47623.849778 58.500000 382.000211 1680.999785 3750.000000 58.500000 58.500000 918.629657 5.205310 -44.162015 0.250000 1.000000 4.000000 3648783.812868 95.503622 4740.838162 8.783692 0.333336 45.000000 45.000000
105.000000 47623.940054 58.000000 386.000211 1682.999784 3750.000000 58.000000 58.000000 917.287548 5.197871 -43.895746 0.250000 1.000000 4.000000 3631327.301452 95.351075 4740.838162 9.088374 0.533978 45.000000 45.000000
106.000000 47100.032722 56.750000 1918.999725 833.000063 3750.000000 56.750000 56.750000 916.694869 5.194585 101.898315 0.250000 1.000000 4.000000 5069219.190563 106.565711 4740.838162 8.542582 0.504589 45.000000 45.000000
107.000000 94204.488528 56.124998 1917.999724 831.500056 3750.000000 56.000000 56.250000 916.131258 5.191461 102.033604 0.500000 2.000000 4.000000 10133796.519274 134.243889 4740.838162 8.702087 0.278340 90.000000 90.000000
108.000000 47626.250022 53.750000 430.000209 321.000236 3750.000000 53.750000 53.750000 917.531701 5.199224 -139.818646 0.250000 1.000000 4.000000 3379255.207574 93.091664 4740.838162 1.531783 0.572303 45.000000 45.000000
109.000000 47625.922679 52.750000 432.000272 1531.999754 3750.000000 52.750000 52.750000 779.871417 4.432619 -49.159643 0.250000 1.000000 3.000000 3982194.896353 98.328172 2361.430926 9.155021 0.672599 45.000000 45.000000
110.000000 95252.256114 52.625000 426.500209 324.000234 3750.000000 52.500000 52.750000 917.834094 5.200900 -139.507041 0.500000 2.000000 4.000000 6800675.791479 117.531556 4740.838162 9.160332 0.544511 90.000000 90.000000
111.000000 47290.401046 50.750000 1757.999652 1276.999876 3750.000000 50.750000 50.750000 778.922605 4.427311 70.890467 0.250000 1.000000 3.000000 4939049.337922 105.645642 2361.430926 8.793512 0.660462 45.000000 45.000000
112.000000 47939.790049 50.000000 1758.999132 1274.991319 7620.892126 50.000000 50.000000 779.212633 4.428934 71.054078 0.250000 1.000000 3.000000 5011795.901635 106.161796 2361.430926 1.000494 0.073614 52.000000 52.000000
113.000000 46250.618276 50.000000 1758.999906 1273.990548 7382.143789 50.000000 50.000000 778.889016 4.427124 71.123726 0.250000 1.000000 3.000000 4837230.498738 104.914631 2361.430926 0.999497 0.073420 52.000000 52.000000
114.000000 47623.878748 43.500000 1659.999789 363.000216 3750.000000 43.500000 43.500000 917.237399 5.197593 135.927607 0.250000 1.000000 4.000000 3642947.661507 95.452676 4740.838162 7.923523 0.394506 45.000000 45.000000
115.000000 47623.940359 43.000000 1657.999789 361.000216 3750.000000 43.000000 43.000000 917.287548 5.197871 136.104254 0.250000 1.000000 4.000000 3631327.324708 95.351076 4740.838162 9.075305 0.485795 45.000000 45.000000
116.000000 47387.768472 41.500000 515.000491 1233.999782 3750.000000 41.500000 41.500000 549.538360 3.136036 -67.307955 0.250000 1.000000 2.000000 4854612.879348 105.040150 1177.064788 9.078656 0.945426 45.000000 45.000000
117.000000 42498.586163 41.000000 517.000535 1235.999779 3750.000000 41.000000 41.000000 548.470934 3.129993 -67.034596 0.250000 1.000000 2.000000 4345031.348373 101.228181 1177.064788 1.641954 0.243316 45.000000 45.000000
118.000000 42498.597027 41.000000 1610.999694 512.000264 3750.000000 41.000000 41.000000 779.115120 4.428388 130.888449 0.250000 1.000000 3.000000 3550918.822561 94.642030 2361.430926 1.348222 0.099148 45.000000 45.000000
119.000000 47626.268311 37.750000 1612.999790 1722.999764 3750.000000 37.750000 37.750000 916.886809 5.195649 40.133612 0.250000 1.000000 4.000000 3375939.220151 93.061205 4740.838162 9.165549 0.572748 45.000000 45.000000
120.000000 47075.999719 37.250000 72.000260 1157.999951 3750.000000 37.250000 37.250000 959.685101 5.432523 -81.853012 0.250000 1.000000 5.000000 5129479.837500 106.986318 1578.488392 1.535206 0.484610 45.000000 45.000000
121.000000 5202.366138 36.750000 1615.590729 1719.886578 6024.000000 36.750000 36.750000 916.185368 5.191761 40.382984 0.250000 1.000000 4.000000 370667.790397 44.562076 4740.838162 9.809798 0.033278 52.000000 52.000000
122.000000 90280.293366 36.750000 1616.564841 1720.013283 60239.999999 36.750000 36.750000 916.913242 5.195796 40.424220 0.250000 1.000000 4.000000 6437858.561272 115.403135 4740.838162 1.069341 0.067897 52.000000 52.000000
123.000000 47546.326465 34.750000 1526.999509 810.000219 3750.000000 34.750000 34.750000 547.693720 3.125593 112.772759 0.250000 1.000000 2.000000 4868030.382763 105.136833 1177.064788 9.080587 0.159806 45.000000 45.000000
124.000000 47076.000483 34.500000 105.000292 1006.000009 3750.000000 34.500000 34.500000 917.139283 5.197049 -90.999607 0.250000 1.000000 4.000000 5177115.929440 107.316482 4740.838162 8.068835 0.504080 45.000000 45.000000
125.000000 47194.628815 34.500000 552.000522 1088.999902 3750.000000 34.500000 34.500000 474.750983 2.711992 -81.886968 0.250000 1.000000 1.000000 5202785.189068 107.493556 1565.589622 6.679530 1.020024 45.000000 45.000000
126.000000 47075.999916 34.250000 1095.999964 1936.999719 3750.000000 34.250000 34.250000 917.987189 5.201749 4.623693 0.250000 1.000000 4.000000 416370.408912 46.323043 4740.838162 8.302805 0.400055 45.000000 45.000000
127.000000 42498.586518 34.000000 1526.999465 808.000221 3750.000000 34.000000 34.000000 548.470934 3.129993 112.965404 0.250000 1.000000 2.000000 4345031.384668 101.228182 1177.064788 1.641674 0.243354 45.000000 45.000000
128.000000 47075.999705 33.750000 105.000292 1011.000006 3750.000000 33.750000 33.750000 917.065682 5.196641 -90.687266 0.250000 1.000000 4.000000 5177534.867331 107.319377 4740.838162 4.506679 0.439042 45.000000 45.000000
129.000000 47076.000060 31.000000 1097.999964 1935.999719 3750.000000 31.000000 31.000000 917.154011 5.197130 4.753265 0.250000 1.000000 4.000000 428045.144458 46.752014 4740.838162 8.273401 0.418576 45.000000 45.000000
130.000000 47626.274345 29.250000 1599.999791 310.000244 3750.000000 29.250000 29.250000 917.075466 5.196695 140.930386 0.250000 1.000000 4.000000 3300962.906242 92.367108 4740.838162 8.250197 0.095707 45.000000 45.000000
131.000000 47075.999221 29.000000 1490.999474 955.000099 3750.000000 29.000000 29.000000 473.761009 2.706371 98.130100 0.250000 1.000000 1.000000 5189510.793577 107.402058 1565.589622 1.535203 1.028618 45.000000 45.000000
132.000000 42498.594935 27.000000 158.000328 714.000114 3750.000000 27.000000 27.000000 917.256433 5.197698 -109.620210 0.250000 1.000000 4.000000 4402921.223069 101.675762 4740.838162 1.348222 0.133565 45.000000 45.000000
133.000000 47076.000443 26.250000 1970.999740 886.000049 3750.000000 26.250000 26.250000 958.695204 5.427052 98.155458 0.250000 1.000000 5.000000 5129417.832024 106.985886 1578.488392 7.816082 0.508400 45.000000 45.000000
134.000000 47529.593341 24.500000 182.000279 560.000161 3750.000000 24.500000 24.500000 958.667504 5.426899 -118.810793 0.250000 1.000000 5.000000 4583909.102239 103.050269 1578.488392 9.071092 0.548943 45.000000 45.000000
135.000000 47436.045289 24.000000 640.000143 1855.999707 3750.000000 24.000000 24.000000 917.321864 5.198061 -24.609369 0.250000 1.000000 4.000000 2171857.816523 80.336750 4740.838162 9.119943 0.185837 45.000000 45.000000
136.000000 47075.998776 24.000000 1936.999708 1037.999991 3750.000000 24.000000 24.000000 915.139588 5.185963 88.998209 0.250000 1.000000 4.000000 5177203.301190 107.317086 4740.838162 8.069004 0.505191 45.000000 45.000000
137.000000 47521.021844 23.750000 178.000279 566.000158 3750.000000 23.750000 23.750000 959.307764 5.430437 -118.381659 0.250000 1.000000 5.000000 4601814.002799 103.184267 1578.488392 9.180175 0.548295 45.000000 45.000000
138.000000 47075.999946 23.250000 1938.999708 1033.999993 3750.000000 23.250000 23.250000 917.078222 5.196710 89.250262 0.250000 1.000000 4.000000 5177463.497638 107.318883 4740.838162 8.051813 0.095891 45.000000 45.000000
139.000000 47526.758926 21.250000 605.000562 794.000323 3750.000000 21.250000 21.250000 475.260333 2.714884 -118.668187 0.250000 1.000000 1.000000 4643459.952815 103.494602 1565.589622 9.183420 0.184866 45.000000 45.000000
140.000000 47519.192382 20.500000 604.000563 797.000319 3750.000000 20.500000 20.500000 474.708738 2.711752 -118.292579 0.250000 1.000000 1.000000 4659277.714348 103.611985 1565.589622 9.102787 0.393959 45.000000 45.000000
141.000000 47545.833701 17.000000 225.000291 1475.999826 3750.000000 17.000000 17.000000 917.237362 5.197592 -60.332598 0.250000 1.000000 4.000000 4543790.785447 102.748756 4740.838162 9.193337 0.095776 45.000000 45.000000
142.000000 95259.037979 16.374794 227.501116 1479.999825 3750.000000 16.250000 16.500000 916.623903 5.194192 -60.022526 0.500000 2.000000 4.000000 9074876.404257 129.394963 4740.838162 9.195714 0.095746 90.000000 90.000000
143.000000 42498.594112 15.750000 1884.999672 1329.999886 3750.000000 15.750000 15.750000 916.314555 5.192477 70.358794 0.250000 1.000000 4.000000 4402382.025756 101.671611 4740.838162 1.348222 0.084302 45.000000 45.000000
144.000000 47529.054218 15.250000 1436.999436 1249.999674 3750.000000 15.250000 15.250000 473.506476 2.704925 61.215714 0.250000 1.000000 1.000000 4638567.420848 103.458240 1565.589622 9.141273 0.588800 45.000000 45.000000
145.000000 47519.190390 14.500000 1439.999437 1246.999681 3750.000000 14.500000 14.500000 474.708738 2.711752 61.707421 0.250000 1.000000 1.000000 4659277.519031 103.611984 1565.589622 9.103775 0.392288 45.000000 45.000000
146.000000 47624.636094 13.500000 618.000370 650.000350 3750.000000 13.500000 13.500000 549.180699 3.134011 -132.638625 0.250000 1.000000 2.000000 3890026.997746 97.563642 1177.064788 9.121671 0.188585 45.000000 45.000000
147.000000 47536.387996 12.250000 642.000201 1702.999658 3750.000000 12.250000 12.250000 779.846383 4.432479 -29.161645 0.250000 1.000000 3.000000 2559628.665445 84.858650 2361.430926 9.188591 0.112656 45.000000 45.000000
148.000000 47530.158097 12.000000 1860.999721 1483.999839 3750.000000 12.000000 12.000000 957.791409 5.422057 61.160378 0.250000 1.000000 5.000000 4582730.893546 103.041439 1578.488392 9.020825 0.549393 45.000000 45.000000
149.000000 47530.032083 11.500000 646.000198 1704.999657 3750.000000 11.500000 11.500000 779.656580 4.431417 -28.833330 0.250000 1.000000 3.000000 2532955.508412 84.562858 2361.430926 9.173524 0.112688 45.000000 45.000000
150.000000 47522.658725 11.250000 1864.999721 1478.999841 3750.000000 11.250000 11.250000 958.904263 5.428208 61.537370 0.250000 1.000000 5.000000 4598469.772836 103.159266 1578.488392 9.138307 0.548574 45.000000 45.000000
151.000000 47624.586080 5.000000 1424.999630 1393.999649 3750.000000 5.000000 5.000000 548.445477 3.129849 47.290611 0.250000 1.000000 2.000000 3885610.774901 97.526707 1177.064788 7.826745 0.160008 45.000000 45.000000
152.000000 42498.596015 5.000000 1817.999699 568.000169 3750.000000 5.000000 5.000000 916.368576 5.192776 119.698350 0.250000 1.000000 4.000000 4060224.239898 98.966255 4740.838162 9.132951 0.084297 45.000000 45.000000
153.000000 95416.376514 4.375000 1815.999710 564.000175 3750.000000 4.250000 4.500000 916.623903 5.194192 119.977474 0.500000 2.000000 4.000000 9089865.299684 129.466164 4740.838162 8.840595 0.095393 90.000000 90.000000
154.000000 47075.999964 2.250000 243.000344 1030.999993 3750.000000 2.250000 2.250000 779.051644 4.428033 -89.338076 0.250000 1.000000 3.000000 5203141.967000 107.496013 2361.430926 8.045790 0.112881 45.000000 45.000000
155.000000 32157.400999 1.500000 241.825797 1035.998532 12445.289891 1.500000 1.500000 780.299780 4.435015 -88.972062 0.250000 1.000000 3.000000 3553874.048237 94.668277 2361.430926 0.967650 0.073294 45.000000 52.000000
156.000000 62127.779847 1.500000 242.850276 1036.000177 9621.622782 1.500000 1.500000 779.275495 4.429285 -88.970590 0.250000 1.000000 3.000000 6866099.469065 117.907246 2361.430926 9.070679 0.594080 50.000000 52.000000
157.000000 47560.553750 1.250000 626.000211 350.000341 3750.000000 1.250000 1.250000 779.999599 4.433336 -149.489763 0.250000 1.000000 3.000000 2668277.704716 86.042722 2361.430926 9.200000 0.433424 45.000000 45.000000
158.000000 47566.511359 0.500000 622.000214 353.000341 3750.000000 0.500000 0.500000 779.461592 4.430326 -149.124488 0.250000 1.000000 3.000000 2697451.765640 86.355173 2361.430926 1.533038 0.676436 45.000000 45.000000
159.000000 47434.658522 -0.750000 1402.999858 188.000293 3750.000000 -0.750000 -0.750000 916.905886 5.195755 155.447443 0.250000 1.000000 4.000000 2167097.409562 80.278012 4740.838162 9.119593 0.229773 45.000000 45.000000
160.000000 47483.268024 -5.000000 611.000155 202.000292 3750.000000 -5.000000 -5.000000 917.235190 5.197580 -153.379078 0.250000 1.000000 4.000000 2339379.942531 82.351349 4740.838162 8.766347 0.526648 45.000000 45.000000
161.000000 47076.000500 -5.000000 1494.999444 1046.999952 3750.000000 -5.000000 -5.000000 473.659658 2.705795 86.974499 0.250000 1.000000 1.000000 5234902.941999 107.714295 1565.589622 8.196977 0.185649 45.000000 45.000000
162.000000 47076.000276 -5.000000 1494.999444 997.000048 3750.000000 -5.000000 -5.000000 473.659658 2.705795 93.025501 0.250000 1.000000 1.000000 5234902.917090 107.714294 1565.589622 7.729267 0.185649 45.000000 45.000000
163.000000 47535.157956 -6.000000 1400.999800 341.000343 3750.000000 -6.000000 -6.000000 779.359597 4.429756 150.902553 0.250000 1.000000 3.000000 2554428.851853 84.801148 2361.430926 9.185990 0.112727 45.000000 45.000000
164.000000 47075.998570 -6.750000 1799.999656 1013.000007 3750.000000 -6.750000 -6.750000 778.051711 4.422440 90.662775 0.250000 1.000000 3.000000 5203180.230211 107.496276 2361.430926 3.442483 0.592498 45.000000 45.000000
165.000000 47528.763965 -6.750000 1396.999802 339.000343 3750.000000 -6.750000 -6.750000 779.174809 4.428722 151.231087 0.250000 1.000000 3.000000 2527720.900502 84.504565 2361.430926 8.809585 0.260319 45.000000 45.000000
166.000000 94152.001408 -7.375000 1800.999657 1008.000011 3750.000000 -7.500000 -7.250000 779.125449 4.428446 91.029595 0.500000 2.000000 3.000000 10405291.596151 135.432184 2361.430926 7.630982 0.438735 90.000000 90.000000
167.000000 47521.612047 -9.500000 216.000292 586.000166 3750.000000 -9.500000 -9.500000 916.368586 5.192777 -118.410858 0.250000 1.000000 4.000000 4597172.226628 103.149562 4740.838162 9.167128 0.095881 45.000000 45.000000
168.000000 58055.367679 -10.250000 211.431749 590.938250 10169.500056 -10.250000 -10.250000 918.060521 5.202155 -118.004131 0.250000 1.000000 4.000000 5637541.322648 110.407958 4740.838162 1.096401 0.598674 56.000000 56.000000
169.000000 48549.636930 -10.250000 211.515125 592.162307 51294.999955 -10.250000 -10.250000 917.412761 5.198565 -117.939080 0.250000 1.000000 4.000000 4717346.786188 104.040652 4740.838162 1.122956 0.043760 56.000000 56.000000
170.000000 47623.746878 -11.250000 631.000357 1407.999646 3750.000000 -11.250000 -11.250000 549.432841 3.135438 -45.368694 0.250000 1.000000 2.000000 3763017.815636 96.490055 1177.064788 9.078942 0.946870 45.000000 45.000000
171.000000 47558.426747 -16.250000 1415.999790 1693.999658 3750.000000 -16.250000 -16.250000 778.986120 4.427667 30.383501 0.250000 1.000000 3.000000 2658153.589433 85.933761 2361.430926 9.199097 0.126017 45.000000 45.000000
172.000000 47552.529588 -16.750000 192.000278 1501.999831 3750.000000 -16.750000 -16.750000 958.801010 5.427637 -59.958636 0.250000 1.000000 5.000000 4530864.609979 102.651230 1578.488392 9.193801 0.091620 45.000000 45.000000
173.000000 47566.510236 -16.750000 1421.999786 1690.999659 3750.000000 -16.750000 -16.750000 779.461592 4.430326 30.875512 0.250000 1.000000 3.000000 2697451.701956 86.355172 2361.430926 1.533038 0.676436 45.000000 45.000000
174.000000 47558.535623 -17.500000 195.000278 1506.999829 3750.000000 -17.500000 -17.500000 958.724869 5.427216 -59.610207 0.250000 1.000000 5.000000 4515413.155882 102.534408 1578.488392 9.199143 0.091623 45.000000 45.000000
175.000000 47551.243668 -20.000000 611.000562 1258.999660 3750.000000 -20.000000 -20.000000 474.435851 2.710203 -60.030432 0.250000 1.000000 1.000000 4586968.232522 103.073188 1565.589622 9.195904 0.185158 45.000000 45.000000
176.000000 47779.604866 -20.000000 1411.999644 636.000353 3750.000000 -20.000000 -20.000000 548.721650 3.131412 134.704663 0.250000 1.000000 2.000000 3770571.789690 96.554578 1177.064788 9.058004 0.441175 45.000000 45.000000
177.000000 47555.945087 -20.750000 612.000561 1260.999657 3750.000000 -20.750000 -20.750000 474.573889 2.710987 -59.760945 0.250000 1.000000 1.000000 4574923.380981 102.982889 1565.589622 7.630346 1.110468 45.000000 45.000000
178.000000 47522.214319 -21.250000 1826.999708 1457.999834 3750.000000 -21.250000 -21.250000 915.489151 5.187901 61.559365 0.250000 1.000000 4.000000 4595972.663260 103.140589 4740.838162 9.167609 0.095973 45.000000 45.000000
179.000000 47354.134581 -22.000000 168.000296 1356.999878 3750.000000 -22.000000 -22.000000 917.355118 5.198245 -68.581330 0.250000 1.000000 4.000000 4848632.073990 104.996996 4740.838162 9.046339 0.095872 45.000000 45.000000
180.000000 47072.106778 -22.000000 1832.000255 1452.999928 7501.255849 -22.000000 -22.000000 917.530028 5.199215 61.982624 0.250000 1.000000 4.000000 4570456.801175 102.949364 4740.838162 0.999551 0.062416 56.000000 56.000000
181.000000 47123.845878 -22.000000 1830.999729 1451.999983 7502.797958 -22.000000 -22.000000 916.177137 5.191715 62.008437 0.250000 1.000000 4.000000 4576632.018471 102.995708 4740.838162 0.999644 0.062558 56.000000 56.000000
182.000000 47552.310797 -26.250000 1431.999438 785.000341 3750.000000 -26.250000 -26.250000 473.569823 2.705285 120.030006 0.250000 1.000000 1.000000 4584296.720289 103.053173 1565.589622 9.195525 0.185496 45.000000 45.000000
183.000000 47556.987538 -27.000000 1430.999438 783.000345 3750.000000 -27.000000 -27.000000 473.710223 2.706082 120.299967 0.250000 1.000000 1.000000 4572204.016592 102.962481 1565.589622 1.533138 1.112548 45.000000 45.000000
184.000000 47076.000695 -28.500000 106.000289 1056.999981 3750.000000 -28.500000 -28.500000 916.668134 5.194437 -87.811816 0.250000 1.000000 4.000000 5174148.528589 107.295974 4740.838162 8.148339 0.472300 45.000000 45.000000
185.000000 47075.998275 -29.250000 106.000289 1061.999979 3750.000000 -29.250000 -29.250000 916.872657 5.195571 -87.499590 0.250000 1.000000 4.000000 5172984.318975 107.287926 4740.838162 8.051964 0.510213 45.000000 45.000000
186.000000 47553.053864 -29.250000 1850.999722 542.000169 3750.000000 -29.250000 -29.250000 957.935476 5.422854 120.071307 0.250000 1.000000 5.000000 4529580.147734 102.641529 1578.488392 9.196722 0.091702 45.000000 45.000000
187.000000 47558.535740 -30.250000 1848.999722 537.000171 3750.000000 -30.250000 -30.250000 958.724869 5.427216 120.389793 0.250000 1.000000 5.000000 4515413.166990 102.534408 1578.488392 9.199143 0.091623 45.000000 45.000000
188.000000 42498.593446 -32.000000 69.000332 913.000037 3750.000000 -32.000000 -32.000000 959.212886 5.429913 -96.524889 0.250000 1.000000 5.000000 4647655.092789 103.525760 1578.488392 1.348222 0.080532 45.000000 45.000000
189.000000 47354.743928 -33.250000 1874.999704 687.000122 3750.000000 -33.250000 -33.250000 916.424254 5.193085 111.441501 0.250000 1.000000 4.000000 4847975.708983 104.992258 4740.838162 9.046950 0.095969 45.000000 45.000000
190.000000 47076.001185 -34.750000 550.000531 968.000087 3750.000000 -34.750000 -34.750000 475.078403 2.713851 -96.526646 0.250000 1.000000 1.000000 5208195.348469 107.530802 1565.589622 8.415737 0.689086 45.000000 45.000000
191.000000 47361.781647 -39.000000 512.000494 819.000207 3750.000000 -39.000000 -39.000000 548.915670 3.132511 -111.704494 0.250000 1.000000 2.000000 4886222.073437 105.267635 1177.064788 9.040024 0.819615 45.000000 45.000000
192.000000 47076.001252 -39.000000 1936.999710 987.000019 3750.000000 -39.000000 -39.000000 915.668864 5.188898 92.190573 0.250000 1.000000 4.000000 5174185.792564 107.296232 4740.838162 8.057303 0.096036 45.000000 45.000000
193.000000 47352.950466 -39.500000 511.000494 822.000204 3750.000000 -39.500000 -39.500000 548.744397 3.131541 -111.374849 0.250000 1.000000 2.000000 4896425.072998 105.340854 1177.064788 9.045122 0.160274 45.000000 45.000000
194.000000 47076.000282 -39.750000 1936.999711 983.000021 3750.000000 -39.750000 -39.750000 915.830481 5.189794 92.440637 0.250000 1.000000 4.000000 5173264.885831 107.289866 4740.838162 8.156752 0.096018 45.000000 45.000000
195.000000 47076.000519 -40.250000 1492.999468 1075.999912 3750.000000 -40.250000 -40.250000 474.084897 2.708210 83.459617 0.250000 1.000000 1.000000 5208076.532291 107.529984 1565.589622 8.416526 1.005104 45.000000 45.000000
196.000000 42498.593570 -43.000000 1973.999668 1130.999963 3750.000000 -43.000000 -43.000000 958.219369 5.424422 83.468317 0.250000 1.000000 5.000000 4647634.339842 103.525606 1578.488392 4.057341 0.080616 45.000000 45.000000
197.000000 47626.341091 -43.250000 441.000209 1731.999758 3750.000000 -43.250000 -43.250000 917.420521 5.198608 -39.293801 0.250000 1.000000 4.000000 3316849.364057 92.515048 4740.838162 8.978353 0.095670 45.000000 45.000000
198.000000 93894.859550 -44.250000 443.497522 1733.480198 11909.631292 -44.250000 -44.250000 916.989198 5.196217 -39.114460 0.250000 1.000000 4.000000 6514105.267337 115.856940 4740.838162 3.508750 0.078950 56.000000 56.000000
199.000000 849.763267 -44.250000 443.192958 1734.348292 51294.999999 -44.250000 -44.250000 917.854934 5.201016 -39.095024 0.250000 1.000000 4.000000 58928.609584 24.140478 4740.838162 0.411138 0.120308 56.000000 56.000000
200.000000 47626.364486 -45.750000 420.000283 526.000246 3750.000000 -45.750000 -45.750000 780.012445 4.433408 -129.485801 0.250000 1.000000 3.000000 4062516.013565 98.984872 2361.430926 4.715187 0.229332 45.000000 45.000000
201.000000 47362.814207 -45.750000 1530.999506 1224.999792 3750.000000 -45.750000 -45.750000 547.986690 3.127251 68.256839 0.250000 1.000000 2.000000 4885039.249320 105.259140 1177.064788 9.054438 0.717604 45.000000 45.000000
202.000000 47353.974701 -46.250000 1531.999505 1221.999795 3750.000000 -46.250000 -46.250000 547.813302 3.126270 68.587032 0.250000 1.000000 2.000000 4895279.328057 105.332637 1177.064788 9.046182 0.160545 45.000000 45.000000
203.000000 47623.723350 -47.250000 374.000213 372.000213 3750.000000 -47.250000 -47.250000 917.825390 5.200852 -135.088283 0.250000 1.000000 4.000000 3697668.715024 95.928237 4740.838162 9.071209 0.566603 45.000000 45.000000
204.000000 47623.726219 -47.500000 372.000213 375.000213 3750.000000 -47.500000 -47.500000 917.119647 5.196940 -134.867473 0.250000 1.000000 4.000000 3711965.248840 96.051709 4740.838162 7.481193 0.477760 45.000000 45.000000
205.000000 47075.999705 -49.250000 947.000036 1936.999719 3750.000000 -49.250000 -49.250000 918.068342 5.202198 -4.685899 0.250000 1.000000 4.000000 421973.243557 46.529898 4740.838162 8.303052 0.095779 45.000000 45.000000
206.000000 47076.000480 -54.000000 945.000037 1935.999719 3750.000000 -54.000000 -54.000000 917.237418 5.197593 -4.815516 0.250000 1.000000 4.000000 433651.018150 46.955224 4740.838162 8.314600 0.110662 45.000000 45.000000
207.000000 47309.965779 -55.750000 289.000348 1285.999870 3750.000000 -55.750000 -55.750000 779.092049 4.428259 -70.192821 0.250000 1.000000 3.000000 4919868.517001 105.508706 2361.430926 1.535306 0.634328 45.000000 45.000000
208.000000 9472.210833 -56.500000 288.775678 1287.557449 60239.999909 -56.500000 -56.500000 779.832460 4.432401 -70.090746 0.250000 1.000000 3.000000 984396.902734 61.710710 2361.430926 0.775147 0.058767 52.000000 52.000000
209.000000 85935.284789 -56.500000 289.573985 1288.036531 52441.180675 -56.500000 -56.500000 779.245342 4.429117 -70.037638 0.250000 1.000000 3.000000 8927837.608738 128.692298 2361.430926 1.112043 0.073765 52.000000 52.000000
210.000000 47626.365736 -57.250000 1622.999717 1517.999753 3750.000000 -57.250000 -57.250000 779.240922 4.429092 50.467444 0.250000 1.000000 3.000000 4059806.448976 98.962860 2361.430926 8.754996 0.616813 45.000000 45.000000
211.000000 47626.329328 -59.500000 1601.999790 312.000243 3750.000000 -59.500000 -59.500000 916.787550 5.195099 140.754566 0.250000 1.000000 4.000000 3313443.089053 92.483368 4740.838162 8.780395 0.095736 45.000000 45.000000
212.000000 47626.289770 -60.500000 1599.999790 311.000244 3750.000000 -60.500000 -60.500000 916.299302 5.192392 140.890976 0.250000 1.000000 4.000000 3303784.405951 92.393417 4740.838162 9.178874 0.095788 45.000000 45.000000
213.000000 47088.355629 -61.250000 123.000274 842.000061 3750.000000 -61.250000 -61.250000 916.842673 5.195405 -101.322188 0.250000 1.000000 4.000000 5078441.035980 106.630293 4740.838162 8.668367 0.541590 45.000000 45.000000
214.000000 94183.153030 -61.750000 122.000273 845.000060 7500.000000 -61.750000 -61.750000 917.239602 5.197605 -101.126175 0.250000 1.000000 4.000000 10164442.299294 134.379075 4740.838162 8.658323 0.540880 45.000000 45.000000
215.000000 47623.724898 -62.000000 1668.999787 1671.999786 3750.000000 -62.000000 -62.000000 917.119647 5.196940 44.867473 0.250000 1.000000 4.000000 3694825.699170 95.903645 4740.838162 9.074318 0.095683 45.000000 45.000000
216.000000 47623.722429 -62.250000 1670.999786 1668.999787 3750.000000 -62.250000 -62.250000 916.411178 5.193013 45.088419 0.250000 1.000000 4.000000 3709141.763809 96.027349 4740.838162 9.073240 0.095757 45.000000 45.000000
217.000000 47309.965800 -65.250000 1754.999652 758.000130 3750.000000 -65.250000 -65.250000 779.092049 4.428259 109.807179 0.250000 1.000000 3.000000 4919868.519185 105.508706 2361.430926 1.535307 0.653875 45.000000 45.000000
218.000000 116.467684 -66.000000 1754.367319 756.930516 6024.040479 -66.000000 -66.000000 778.860527 4.426964 109.896971 0.250000 1.000000 3.000000 12104.901110 14.243746 2361.430926 0.234313 0.628237 6.000000 52.000000
219.000000 94351.051629 -66.000000 1753.497268 756.000081 13235.770959 -66.000000 -66.000000 778.359949 4.424164 109.983170 0.250000 1.000000 3.000000 9800925.370296 132.757630 2361.430926 9.941431 0.074820 52.000000 52.000000
220.000000 47087.165403 -71.750000 1920.999727 1200.999939 3750.000000 -71.750000 -71.750000 916.646871 5.194319 78.739102 0.250000 1.000000 4.000000 5079406.634185 106.637050 4740.838162 8.663211 0.541649 45.000000 45.000000
221.000000 94183.610142 -72.250000 1920.999727 1198.999940 7500.000000 -72.250000 -72.250000 916.258417 5.192166 78.861759 0.250000 1.000000 4.000000 10164158.063121 134.377823 4740.838162 8.659684 0.096087 45.000000 45.000000
222.000000 47702.402110 -76.250000 663.006263 132.000819 7587.265557 -76.250000 -76.250000 959.674447 5.432464 -158.032620 0.250000 1.000000 5.000000 1963250.390142 77.677581 1578.488392 5.256479 0.059741 52.000000 52.000000
223.000000 93854.849828 -76.376170 664.003492 131.495409 7415.556760 -76.500000 -76.250000 960.231437 5.435542 -158.109949 0.500000 2.000000 5.000000 3847874.627827 97.209961 1578.488392 9.058364 0.540516 97.000000 97.000000
224.000000 47102.230240 -77.000000 860.000074 1783.999676 3750.000000 -77.000000 -77.000000 779.029834 4.427911 -12.002295 0.250000 1.000000 3.000000 1081828.362127 63.682961 2361.430926 8.700629 0.122407 45.000000 45.000000
225.000000 137429.022063 -83.577310 841.000248 583.000584 7500.000000 -83.750000 -83.500000 474.848781 2.712548 -157.593612 0.500000 2.000000 1.000000 5830523.425672 111.653664 1565.589622 9.042728 0.184779 90.000000 90.000000
226.000000 47625.492420 -85.500000 300.000251 455.000209 3750.000000 -85.500000 -85.500000 918.026362 5.201966 -128.143204 0.250000 1.000000 4.000000 4119362.962712 99.444435 4740.838162 9.189333 0.095614 45.000000 45.000000
227.000000 47592.284252 -86.500000 250.000284 1517.999807 3750.000000 -86.500000 -86.500000 917.605236 5.199631 -57.279781 0.250000 1.000000 4.000000 4403724.328478 101.681943 4740.838162 8.969213 0.574030 45.000000 45.000000
228.000000 47624.946411 -86.500000 312.000214 1665.999800 3750.000000 -86.500000 -86.500000 958.559042 5.426300 -47.790643 0.250000 1.000000 5.000000 3882430.934875 97.500096 1578.488392 9.037251 0.091551 45.000000 45.000000
229.000000 95174.784096 -86.875000 363.000336 605.000224 3750.000000 -87.000000 -86.750000 779.852146 4.432511 -122.324684 0.500000 2.000000 3.000000 8888653.901868 128.503748 2361.430926 8.753005 0.552818 90.000000 90.000000
230.000000 42498.593586 -87.000000 64.000333 1072.999983 3750.000000 -87.000000 -87.000000 959.356221 5.430705 -86.952684 0.250000 1.000000 5.000000 4671345.274480 103.701360 1578.488392 1.348222 0.105687 45.000000 45.000000
231.000000 47591.658900 -87.500000 250.000285 1516.999808 3750.000000 -87.500000 -87.500000 917.065085 5.196637 -57.332344 0.250000 1.000000 4.000000 4406282.382556 101.701628 4740.838162 9.200662 0.572157 45.000000 45.000000
232.000000 47584.802348 -87.500000 730.000316 1486.999521 3750.000000 -87.500000 -87.500000 549.079566 3.133438 -32.127052 0.250000 1.000000 2.000000 2809524.949994 87.534938 1177.064788 9.158367 0.960875 45.000000 45.000000
233.000000 42498.593586 -87.750000 64.000333 1072.999983 3750.000000 -87.750000 -87.750000 959.356221 5.430705 -86.952684 0.250000 1.000000 5.000000 4671345.274480 103.701360 1578.488392 1.348222 0.105687 45.000000 45.000000
234.000000 47113.894620 -87.750000 127.000277 1220.999935 3750.000000 -87.750000 -87.750000 916.856302 5.195480 -77.464414 0.250000 1.000000 4.000000 5058502.226666 106.490560 4740.838162 8.663318 0.545247 45.000000 45.000000
235.000000 47584.802348 -88.750000 730.000316 1486.999521 3750.000000 -88.750000 -88.750000 549.079566 3.133438 -32.127052 0.250000 1.000000 2.000000 2809524.949994 87.534938 1177.064788 9.158367 0.960875 45.000000 45.000000
236.000000 47118.107759 -89.500000 486.000463 901.000110 3750.000000 -89.500000 -89.500000 549.487468 3.135748 -102.721074 0.250000 1.000000 2.000000 5103631.843041 106.806310 1177.064788 8.725079 0.323498 45.000000 45.000000
237.000000 47076.000314 -89.500000 548.000555 1046.999952 3750.000000 -89.500000 -89.500000 474.658268 2.711466 -86.980870 0.250000 1.000000 1.000000 5234909.146985 107.714337 1565.589622 8.152328 0.990077 45.000000 45.000000
238.000000 47076.000314 -90.250000 548.000555 1046.999952 3750.000000 -90.250000 -90.250000 474.658268 2.711466 -86.980870 0.250000 1.000000 1.000000 5234909.146985 107.714337 1565.589622 8.152328 0.990077 45.000000 45.000000
239.000000 47781.046527 -90.250000 669.000432 1339.999597 3750.000000 -90.250000 -90.250000 475.113080 2.714048 -47.985898 0.250000 1.000000 1.000000 3952912.057481 98.086562 1565.589622 6.339557 1.101215 45.000000 45.000000
240.000000 47076.000276 -95.750000 1494.999444 997.000048 3750.000000 -95.750000 -95.750000 473.659658 2.705795 93.025501 0.250000 1.000000 1.000000 5234902.917090 107.714294 1565.589622 7.729267 0.185649 45.000000 45.000000
241.000000 42498.581152 -96.000000 1556.999431 1142.999875 3750.000000 -96.000000 -96.000000 548.511952 3.130225 77.255923 0.250000 1.000000 2.000000 4602871.140659 103.192168 1177.064788 1.348222 0.282772 45.000000 45.000000
242.000000 47587.391845 -97.250000 1680.999664 1438.999776 3750.000000 -97.250000 -97.250000 779.852146 4.432511 57.675316 0.250000 1.000000 3.000000 4444593.603130 101.995532 2361.430926 8.721502 0.555393 45.000000 45.000000
243.000000 47588.393946 -97.500000 1678.999663 1438.999775 3750.000000 -97.500000 -97.500000 778.162817 4.423061 57.596574 0.250000 1.000000 3.000000 4440873.685842 101.967069 2361.430926 8.223509 0.675537 45.000000 45.000000
244.000000 47780.982295 -97.500000 1373.999568 704.000403 3750.000000 -97.500000 -97.500000 474.370572 2.709832 132.094944 0.250000 1.000000 1.000000 3947891.462377 98.045018 1565.589622 6.592418 1.103171 45.000000 45.000000
245.000000 137423.164769 -97.577313 1202.309006 1460.999415 7500.000000 -97.750000 -97.500000 474.848781 2.712548 22.406388 0.500000 2.000000 1.000000 5830274.925833 111.652077 1565.589622 8.958099 0.828725 90.000000 90.000000
246.000000 47069.607974 -97.750000 1978.999728 971.000025 3750.000000 -97.750000 -97.750000 958.357697 5.425187 93.050494 0.250000 1.000000 5.000000 5173812.465081 107.293651 1578.488392 1.535042 0.091773 45.000000 45.000000
247.000000 47075.999568 -98.500000 1977.999725 971.000024 3750.000000 -98.500000 -98.500000 957.359113 5.419668 93.053679 0.250000 1.000000 5.000000 5174546.990149 107.298728 1578.488392 8.204554 0.091851 45.000000 45.000000
248.000000 47114.204652 -98.500000 1915.999723 823.000065 3750.000000 -98.500000 -98.500000 915.880166 5.190069 102.549164 0.250000 1.000000 4.000000 5058312.186366 106.489227 4740.838162 8.720997 0.096105 45.000000 45.000000
249.000000 47625.543769 -98.750000 1742.999750 1588.999791 3750.000000 -98.750000 -98.750000 917.240100 5.197608 51.818215 0.250000 1.000000 4.000000 4117216.057935 99.427156 4740.838162 9.188954 0.095696 45.000000 45.000000
250.000000 47592.690633 -99.000000 1792.999715 526.000193 3750.000000 -99.000000 -99.000000 916.764075 5.194969 122.754001 0.250000 1.000000 4.000000 4402125.133923 101.669634 4740.838162 8.576438 0.575607 45.000000 45.000000
251.000000 47583.620104 -99.250000 1312.999684 557.000479 3750.000000 -99.250000 -99.250000 548.548421 3.130431 147.961403 0.250000 1.000000 2.000000 2802551.243426 87.462452 1177.064788 7.619359 0.961773 45.000000 45.000000
252.000000 47592.062092 -99.750000 1792.999715 527.000193 3750.000000 -99.750000 -99.750000 916.223428 5.191972 122.701410 0.250000 1.000000 4.000000 4404686.714838 101.689350 4740.838162 9.209888 0.575888 45.000000 45.000000
253.000000 47583.620104 -100.500000 1312.999684 557.000479 3750.000000 -100.500000 -100.500000 548.548421 3.130431 147.961403 0.250000 1.000000 2.000000 2802551.243426 87.462452 1177.064788 7.619359 0.961773 45.000000 45.000000
254.000000 47624.915894 -101.250000 1730.999786 378.000201 3750.000000 -101.250000 -101.250000 957.818583 5.422207 132.249546 0.250000 1.000000 5.000000 3879982.993670 97.479600 1578.488392 8.603254 0.091621 45.000000 45.000000
255.000000 102220.402373 -104.750000 1379.448150 1911.940568 60238.351900 -104.750000 -104.750000 959.042958 5.428974 21.883057 0.250000 1.000000 5.000000 4191666.636740 100.022885 1578.488392 0.928834 0.060000 52.000000 52.000000
256.000000 53341.533603 -104.971997 1380.118155 1912.945177 18272.689064 -105.000000 -104.750000 960.231437 5.435542 21.890051 0.500000 2.000000 5.000000 2186903.864174 80.521841 1578.488392 9.058509 0.443364 93.000000 97.000000
257.000000 47099.764528 -112.750000 124.000275 833.000063 3750.000000 -112.750000 -112.750000 917.673407 5.200009 -101.885442 0.250000 1.000000 4.000000 5069386.570541 106.566884 4740.838162 8.695183 0.542235 45.000000 45.000000
258.000000 93285.862576 -113.250000 124.996588 831.479804 13608.160551 -113.250000 -113.250000 917.013122 5.196349 -101.991214 0.250000 1.000000 4.000000 10036573.073389 133.813197 4740.838162 1.002911 0.069994 52.000000 52.000000
259.000000 1176.458263 -113.250000 124.946046 832.729282 60239.953433 -113.250000 -113.250000 916.803797 5.195189 -101.914175 0.250000 1.000000 4.000000 126610.758851 31.150188 4740.838162 0.434176 0.059110 52.000000 52.000000
260.000000 47100.708576 -117.750000 1182.999926 260.000324 3750.000000 -117.750000 -117.750000 778.822497 4.426751 168.069664 0.250000 1.000000 3.000000 1075398.371187 63.556541 2361.430926 8.565111 0.113023 45.000000 45.000000
261.000000 47482.014052 -118.000000 1431.999845 1841.999708 3750.000000 -118.000000 -118.000000 916.787541 5.195099 26.565051 0.250000 1.000000 4.000000 2334773.026018 82.297256 4740.838162 1.963648 0.552380 45.000000 45.000000
262.000000 47289.725888 -119.750000 285.000348 1276.999876 3750.000000 -119.750000 -119.750000 779.867569 4.432597 -70.914519 0.250000 1.000000 3.000000 4939661.554714 105.650007 2361.430926 8.967845 0.112806 45.000000 45.000000
263.000000 94568.297405 -120.624997 284.000347 1274.499888 3750.000000 -120.750000 -120.500000 779.838077 4.432432 -71.146841 0.500000 2.000000 3.000000 9891747.589474 133.166445 2361.430926 8.970453 0.112813 90.000000 90.000000
264.000000 47623.860949 -121.500000 383.000211 363.000215 3750.000000 -121.500000 -121.500000 917.933247 5.201450 -135.882762 0.250000 1.000000 4.000000 3645868.866046 95.478183 4740.838162 9.092015 0.476948 45.000000 45.000000
265.000000 47623.922900 -122.000000 385.000211 361.000216 3750.000000 -122.000000 -122.000000 917.981179 5.201715 -136.059277 0.250000 1.000000 4.000000 3634266.175282 95.376791 4740.838162 9.096002 0.559767 45.000000 45.000000
266.000000 47100.032498 -123.250000 1918.999725 1210.999937 3750.000000 -123.250000 -123.250000 916.694869 5.194585 78.101685 0.250000 1.000000 4.000000 5069219.166455 106.565711 4740.838162 8.677071 0.403540 45.000000 45.000000
267.000000 94204.488015 -123.875002 1917.999724 1212.499944 3750.000000 -124.000000 -123.750000 916.131258 5.191461 77.966396 0.500000 2.000000 4.000000 10133796.464089 134.243888 4740.838162 8.701975 0.485043 90.000000 90.000000
268.000000 47626.250282 -126.250000 430.000209 1722.999764 3750.000000 -126.250000 -126.250000 917.531701 5.199224 -40.181354 0.250000 1.000000 4.000000 3379255.226022 93.091664 4740.838162 8.559978 0.095653 45.000000 45.000000
269.000000 47625.921208 -127.250000 432.000272 512.000246 3750.000000 -127.250000 -127.250000 779.871417 4.432619 -130.840357 0.250000 1.000000 3.000000 3982194.773357 98.328171 2361.430926 3.797074 0.672599 45.000000 45.000000
270.000000 95252.257238 -127.375000 426.500209 1719.999766 3750.000000 -127.500000 -127.250000 917.834094 5.200900 -40.492959 0.500000 2.000000 4.000000 6800675.871729 117.531557 4740.838162 9.158962 0.095688 90.000000 90.000000
271.000000 47290.402475 -129.250000 1757.999652 767.000124 3750.000000 -129.250000 -129.250000 778.922605 4.427311 109.109533 0.250000 1.000000 3.000000 4939049.487168 105.645643 2361.430926 8.738784 0.112942 45.000000 45.000000
272.000000 93304.907860 -130.000000 1758.995120 769.517262 15732.543003 -130.000000 -130.000000 779.043863 4.427990 108.910640 0.250000 1.000000 3.000000 9756499.688777 132.556738 2361.430926 1.009193 0.082370 52.000000 52.000000
273.000000 1035.445250 -130.000000 1759.247085 768.128600 9562.812998 -130.000000 -130.000000 779.733257 4.431846 109.001172 0.250000 1.000000 3.000000 108212.801328 29.561741 2361.430926 5.115928 0.019551 52.000000 52.000000
274.000000 47623.861215 -136.500000 1660.999789 1680.999785 3750.000000 -136.500000 -136.500000 917.933247 5.201450 44.117238 0.250000 1.000000 4.000000 3645868.886409 95.478183 4740.838162 9.092015 0.483109 45.000000 45.000000
275.000000 47623.955240 -137.000000 1656.999789 1682.999783 3750.000000 -137.000000 -137.000000 916.594483 5.194029 43.850702 0.250000 1.000000 4.000000 3628381.550467 95.325285 4740.838162 9.098009 0.501168 45.000000 45.000000
276.000000 47388.811362 -138.500000 516.000492 810.000219 3750.000000 -138.500000 -138.500000 548.615903 3.130814 -112.732334 0.250000 1.000000 2.000000 4853315.106658 105.030789 1177.064788 9.079432 0.160281 45.000000 45.000000
277.000000 47393.780879 -139.000000 516.000491 808.000221 3750.000000 -139.000000 -139.000000 549.391853 3.135206 -112.924711 0.250000 1.000000 2.000000 4846946.459169 104.984827 1177.064788 9.083410 0.947375 45.000000 45.000000
278.000000 47625.892739 -139.000000 1610.999728 1531.999754 3750.000000 -139.000000 -139.000000 779.115157 4.428389 49.111551 0.250000 1.000000 3.000000 3979323.807152 98.304536 2361.430926 4.249364 0.673197 45.000000 45.000000
279.000000 47626.265984 -142.250000 1612.999790 321.000236 3750.000000 -142.250000 -142.250000 916.886809 5.195649 139.866388 0.250000 1.000000 4.000000 3375939.055203 93.061203 4740.838162 9.165548 0.095721 45.000000 45.000000
280.000000 47194.991329 -142.750000 72.000258 886.000049 3750.000000 -142.750000 -142.750000 959.685103 5.432523 -98.146988 0.250000 1.000000 5.000000 5142445.362683 107.076383 1578.488392 7.433205 0.474239 45.000000 45.000000
281.000000 47438.278675 -143.250000 1616.996047 324.000518 7547.633255 -143.250000 -143.250000 917.182410 5.197288 139.554714 0.250000 1.000000 4.000000 3384260.715408 93.137605 4740.838162 1.333613 0.062482 52.000000 52.000000
282.000000 46753.315766 -143.250000 1615.996166 323.999802 7451.802502 -143.250000 -143.250000 916.534627 5.193697 139.602312 0.250000 1.000000 4.000000 3332161.556121 92.657195 4740.838162 0.999517 0.062481 52.000000 52.000000
283.000000 47388.811704 -145.250000 1527.999508 1233.999781 3750.000000 -145.250000 -145.250000 548.615903 3.130814 67.267666 0.250000 1.000000 2.000000 4853315.141684 105.030789 1177.064788 9.079620 0.160281 45.000000 45.000000
284.000000 42498.573551 -145.500000 552.000667 955.000092 3750.000000 -145.500000 -145.500000 474.750840 2.711991 -98.113035 0.250000 1.000000 1.000000 4685087.118542 103.802948 1565.589622 8.504420 1.026362 45.000000 45.000000
285.000000 47077.984453 -145.500000 106.000292 1037.999991 3750.000000 -145.500000 -145.500000 916.139435 5.191506 -88.999302 0.250000 1.000000 4.000000 5177377.920461 107.318292 4740.838162 1.534744 0.095984 45.000000 45.000000
286.000000 47075.999697 -145.750000 1095.999964 107.000281 3750.000000 -145.750000 -145.750000 917.987189 5.201749 175.376307 0.250000 1.000000 4.000000 416370.406975 46.323043 4740.838162 5.774179 0.095788 45.000000 45.000000
287.000000 47395.877671 -146.000000 1525.999507 1235.999778 3750.000000 -146.000000 -146.000000 547.550370 3.124781 66.993770 0.250000 1.000000 2.000000 4844287.129858 104.965623 1177.064788 9.086090 0.950493 45.000000 45.000000
288.000000 47075.999702 -146.250000 104.000291 1033.999993 3750.000000 -146.250000 -146.250000 918.078136 5.202253 -89.251078 0.250000 1.000000 4.000000 5177418.860642 107.318575 4740.838162 1.534842 0.095787 45.000000 45.000000
289.000000 47075.853260 -149.000000 1097.999964 108.000281 3750.000000 -149.000000 -149.000000 917.154011 5.197130 175.246735 0.250000 1.000000 4.000000 428043.809659 46.751965 4740.838162 1.534711 0.095875 45.000000 45.000000
290.000000 47075.999627 -151.000000 1490.999474 1088.999901 3750.000000 -151.000000 -151.000000 473.761009 2.706371 81.869900 0.250000 1.000000 1.000000 5189510.838333 107.402058 1565.589622 8.505347 0.185664 45.000000 45.000000
291.000000 47460.917940 -153.000000 158.000295 1329.999891 3750.000000 -153.000000 -153.000000 917.256466 5.197698 -70.379791 0.250000 1.000000 4.000000 4917025.713997 105.488380 4740.838162 1.528207 0.095458 45.000000 45.000000
292.000000 47075.544640 -153.750000 1970.999740 1157.999954 3750.000000 -153.750000 -153.750000 958.695204 5.427052 81.844542 0.250000 1.000000 5.000000 5129368.167566 106.985541 1578.488392 1.535235 0.091752 45.000000 45.000000
293.000000 47529.593117 -155.500000 182.000279 1483.999839 3750.000000 -155.500000 -155.500000 958.667504 5.426899 -61.189207 0.250000 1.000000 5.000000 4583909.080636 103.050269 1578.488392 9.184970 0.547590 45.000000 45.000000
294.000000 47436.045963 -156.000000 640.000143 188.000293 3750.000000 -156.000000 -156.000000 917.321864 5.198061 -155.390631 0.250000 1.000000 4.000000 2171857.847382 80.336751 4740.838162 9.120725 0.569677 45.000000 45.000000
295.000000 47075.928555 -156.000000 1937.999708 1006.000009 3750.000000 -156.000000 -156.000000 916.139435 5.191506 91.000698 0.250000 1.000000 4.000000 5177151.824101 107.316730 4740.838162 8.068930 0.095990 45.000000 45.000000
296.000000 42498.596570 -156.250000 178.000291 1478.999845 3750.000000 -156.250000 -156.250000 959.783500 5.433066 -61.565820 0.250000 1.000000 5.000000 4113396.343334 99.396399 1578.488392 1.518330 0.080484 45.000000 45.000000
297.000000 47075.999724 -156.750000 1937.999708 1011.000006 3750.000000 -156.750000 -156.750000 916.065753 5.191098 90.688017 0.250000 1.000000 4.000000 5177579.585005 107.319685 4740.838162 4.335155 0.095998 45.000000 45.000000
298.000000 47527.906729 -158.750000 606.000563 1249.999675 3750.000000 -158.750000 -158.750000 474.383161 2.709904 -61.273871 0.250000 1.000000 1.000000 4641020.952056 103.476478 1565.589622 7.619366 1.106031 45.000000 45.000000
299.000000 47518.023675 -159.500000 603.000562 1246.999682 3750.000000 -159.500000 -159.500000 475.589514 2.716754 -61.764522 0.250000 1.000000 1.000000 4661641.220329 103.629502 1565.589622 9.178448 0.361515 45.000000 45.000000
300.000000 47545.835038 -163.000000 225.000291 568.000174 3750.000000 -163.000000 -163.000000 917.237362 5.197592 -119.667402 0.250000 1.000000 4.000000 4543790.913219 102.748757 4740.838162 9.182861 0.573268 45.000000 45.000000
301.000000 95101.700634 -163.625000 227.000290 564.000176 3750.000000 -163.750000 -163.500000 917.490260 5.198994 -119.946271 0.500000 2.000000 4.000000 9062664.611952 129.336896 4740.838162 9.133285 0.574255 90.000000 90.000000
302.000000 47305.333905 -164.250000 1884.999704 714.000110 3750.000000 -164.250000 -164.250000 916.314586 5.192477 109.641205 0.250000 1.000000 4.000000 4900306.875982 105.368684 4740.838162 8.859389 0.492044 45.000000 45.000000
303.000000 47527.906375 -164.750000 1437.999437 794.000325 3750.000000 -164.750000 -164.750000 474.383161 2.709904 118.726129 0.250000 1.000000 1.000000 4641020.917488 103.476478 1565.589622 7.622014 1.105469 45.000000 45.000000
304.000000 47520.359312 -165.500000 1438.999436 797.000320 3750.000000 -165.500000 -165.500000 473.828435 2.706754 118.349893 0.250000 1.000000 1.000000 4656899.876439 103.594357 1565.589622 8.308669 0.277216 45.000000 45.000000
305.000000 47624.634600 -166.500000 618.000370 1393.999650 3750.000000 -166.500000 -166.500000 549.180699 3.134011 -47.361375 0.250000 1.000000 2.000000 3890026.875714 97.563641 1177.064788 9.123328 0.159794 45.000000 45.000000
306.000000 47536.389234 -167.750000 642.000201 341.000342 3750.000000 -167.750000 -167.750000 779.846383 4.432479 -150.838355 0.250000 1.000000 3.000000 2559628.732106 84.858651 2361.430926 7.760975 0.112656 45.000000 45.000000
307.000000 47530.159663 -168.000000 1860.999721 560.000161 3750.000000 -168.000000 -168.000000 957.791409 5.422057 118.839622 0.250000 1.000000 5.000000 4582731.044536 103.041440 1578.488392 8.091344 0.091730 45.000000 45.000000
308.000000 47530.032438 -168.500000 646.000198 339.000343 3750.000000 -168.500000 -168.500000 779.656580 4.431417 -151.166670 0.250000 1.000000 3.000000 2532955.527331 84.562858 2361.430926 9.182177 0.112688 45.000000 45.000000
309.000000 47521.597476 -168.750000 1864.999721 566.000159 3750.000000 -168.750000 -168.750000 958.428080 5.425576 118.410075 0.250000 1.000000 5.000000 4600672.874474 103.175737 1578.488392 8.125400 0.548817 45.000000 45.000000
310.000000 47546.396855 -175.000000 1817.999709 1475.999826 3750.000000 -175.000000 -175.000000 916.368582 5.192777 60.301651 0.250000 1.000000 4.000000 4542480.294516 102.738877 4740.838162 9.190656 0.573249 45.000000 45.000000
311.000000 47624.586955 -175.000000 1424.999630 650.000351 3750.000000 -175.000000 -175.000000 548.445477 3.129849 132.709389 0.250000 1.000000 2.000000 3885610.846291 97.526708 1177.064788 1.531627 0.952953 45.000000 45.000000
312.000000 95103.361988 -175.625001 1815.499706 1479.999824 3750.000000 -175.750000 -175.500000 915.757816 5.189391 59.991264 0.500000 2.000000 4.000000 9057260.652666 129.311183 4740.838162 9.122411 0.575373 90.000000 90.000000
313.000000 47075.999095 -177.750000 243.000344 1013.000007 3750.000000 -177.750000 -177.750000 779.051644 4.428033 -90.661924 0.250000 1.000000 3.000000 5203141.870953 107.496012 2361.430926 8.045393 0.112881 45.000000 45.000000
314.000000 94190.794775 -178.500000 242.000343 1008.000010 7500.000000 -178.500000 -178.500000 780.125288 4.434039 -91.028275 0.250000 1.000000 3.000000 10409505.047245 135.450462 2361.430926 7.509773 0.590987 45.000000 45.000000
315.000000 47559.494633 -178.750000 627.000211 1693.999659 3750.000000 -178.750000 -178.750000 779.492383 4.430499 -30.446910 0.250000 1.000000 3.000000 2663220.684730 85.988330 2361.430926 8.872900 0.645696 45.000000 45.000000
316.000000 47567.515126 -179.500000 621.000214 1690.999660 3750.000000 -179.500000 -179.500000 779.975239 4.433200 -30.938560 0.250000 1.000000 3.000000 2702462.724868 86.408613 2361.430926 8.992430 0.676017 45.000000 45.000000
