SpotID IntegratedIntensity Omega(degrees) YCen(px) ZCen(px) IMax MinOme(degrees) MaxOme(degress) SigmaR SigmaEta NrPx NrPxTot Radius(px) Eta(degrees)
1 47434.658102 179.250000 1402.999858 1855.999707 3750.000000 179.250000 179.250000 9.119593 0.569864 45.000000 45.000000 916.905886 24.552557
2 47483.266438 175.000000 611.000155 1841.999708 3750.000000 175.000000 175.000000 8.958039 0.571114 45.000000 45.000000 917.235190 -26.620922
3 47535.158454 174.000000 1400.999800 1702.999657 3750.000000 174.000000 174.000000 9.186331 0.112727 45.000000 45.000000 779.359597 29.097447
4 47528.765326 173.250000 1396.999802 1704.999657 3750.000000 173.250000 173.250000 8.983318 0.112758 45.000000 45.000000 779.174809 28.768913
5 42344.648014 173.250000 1799.999587 1030.999995 3750.000000 173.250000 173.250000 2.919873 0.099661 45.000000 45.000000 778.051642 89.337225
6 94152.000053 172.625000 1800.499656 1035.999990 3750.000000 172.500000 172.750000 8.070978 0.594292 90.000000 90.000000 778.125610 88.969082
7 47521.612530 170.500000 216.000292 1457.999834 3750.000000 170.500000 170.500000 9.180514 0.573496 45.000000 45.000000 916.368586 -61.589142
8 91730.540319 169.750000 211.633543 1452.337268 13558.160566 169.750000 169.750000 10.119276 0.507512 56.000000 56.000000 917.542347 -62.029896
9 14524.442252 169.750000 210.625238 1453.367647 11356.892326 169.750000 169.750000 10.527499 0.029638 56.000000 56.000000 918.916237 -62.002641
10 47623.746895 168.750000 631.000357 636.000354 3750.000000 168.750000 168.750000 9.080016 0.946869 45.000000 45.000000 549.432841 -134.631306
11 47558.424851 163.750000 1415.999790 350.000342 3750.000000 163.750000 163.750000 8.819729 0.667347 45.000000 45.000000 778.986120 149.616499
12 47552.528998 163.250000 192.000278 542.000169 3750.000000 163.250000 163.250000 9.196485 0.549558 45.000000 45.000000 958.801010 -120.041364
13 47565.500844 163.250000 1420.999787 353.000341 3750.000000 163.250000 163.250000 5.055677 0.676801 45.000000 45.000000 778.948890 149.187620
14 47557.146123 162.500000 194.000278 538.000170 3750.000000 162.500000 162.500000 9.174468 0.091590 45.000000 45.000000 959.082570 -120.308039
15 47551.243037 160.000000 611.000562 785.000340 3750.000000 160.000000 160.000000 8.080517 0.185158 45.000000 45.000000 474.435851 -119.969568
16 47779.605541 160.000000 1411.999644 1407.999647 3750.000000 160.000000 160.000000 9.062510 0.445058 45.000000 45.000000 548.721650 45.295337
17 47555.945413 159.250000 612.000561 783.000343 3750.000000 159.250000 159.250000 9.198025 0.185099 45.000000 45.000000 474.573889 -120.239055
18 47522.213517 158.750000 1826.999708 586.000166 3750.000000 158.750000 158.750000 9.180858 0.574580 45.000000 45.000000 915.489151 118.440635
19 47354.133048 158.000000 168.000295 687.000122 3750.000000 158.000000 158.000000 9.046339 0.095872 45.000000 45.000000 917.355119 -111.418670
20 12552.812334 158.000000 1830.581528 592.480781 5129.500000 158.000000 158.000000 10.528078 0.036164 56.000000 56.000000 915.582245 117.977279
21 82534.088199 158.000000 1831.622940 591.360659 11229.282937 158.000000 158.000000 1.143888 0.063923 56.000000 56.000000 917.027561 118.008561
22 42498.588625 153.750000 1431.999420 1258.999670 3750.000000 153.750000 153.750000 1.494463 0.210422 45.000000 45.000000 473.569813 59.969992
23 47556.986367 153.000000 1430.999438 1260.999655 3750.000000 153.000000 153.000000 9.198483 0.185435 45.000000 45.000000 473.710223 59.700033
24 47482.010970 152.000000 1431.999846 202.000292 3750.000000 152.000000 152.000000 9.155417 0.572177 45.000000 45.000000 916.787541 153.434949
25 47076.005698 151.500000 106.000289 987.000019 3750.000000 151.500000 151.500000 6.177611 0.095931 45.000000 45.000000 916.668134 -92.188184
26 47076.000046 150.750000 106.000289 983.000021 3750.000000 150.750000 150.750000 8.164708 0.493250 45.000000 45.000000 916.829575 -92.437976
27 47553.053263 150.750000 1850.999722 1501.999831 3750.000000 150.750000 150.750000 9.190301 0.550070 45.000000 45.000000 957.935476 59.928693
28 47559.046986 149.750000 1847.999722 1506.999829 3750.000000 149.750000 149.750000 9.199328 0.091705 45.000000 45.000000 957.862399 59.579948
29 47075.999843 148.000000 69.000263 1130.999957 3750.000000 148.000000 148.000000 1.534824 0.321353 45.000000 45.000000 959.212953 -83.475112
30 47354.746748 146.750000 1874.999704 1356.999878 3750.000000 146.750000 146.750000 9.012046 0.095969 45.000000 45.000000 916.424254 68.558499
31 47075.999474 145.250000 550.000531 1075.999913 3750.000000 145.250000 145.250000 6.902716 0.264083 45.000000 45.000000 475.078403 -83.473354
32 47518.168666 141.000000 512.000492 1224.999794 3750.000000 141.000000 141.000000 9.053893 0.159473 45.000000 45.000000 548.915672 -68.295506
33 47075.999700 141.000000 1936.999710 1056.999981 3750.000000 141.000000 141.000000 1.534790 0.471306 45.000000 45.000000 915.668864 87.809427
34 47509.305582 140.500000 511.000492 1221.999797 3750.000000 140.500000 140.500000 8.991096 0.159530 45.000000 45.000000 548.744399 -68.625151
35 47167.051932 140.250000 1936.999712 1061.999979 3750.000000 140.250000 140.250000 8.041974 0.506801 45.000000 45.000000 915.873611 87.496861
36 47075.999873 139.750000 1492.999468 968.000088 3750.000000 139.750000 139.750000 6.965330 0.185492 45.000000 45.000000 474.084896 96.540383
37 47075.998163 137.000000 1973.999737 913.000043 3750.000000 137.000000 137.000000 4.109333 0.503230 45.000000 45.000000 958.219437 96.531682
38 47626.339962 136.750000 441.000209 312.000242 3750.000000 136.750000 136.750000 9.176640 0.427403 45.000000 45.000000 917.420521 -140.706199
39 82682.873641 135.750000 443.029626 310.373851 26022.340266 135.750000 135.750000 1.067830 0.064056 52.000000 52.000000 917.397661 -140.868618
40 13167.735187 135.750000 442.856263 311.406502 40690.277779 135.750000 135.750000 0.843402 0.041236 52.000000 52.000000 916.706380 -140.819480
41 47626.362005 134.250000 420.000283 1517.999754 3750.000000 134.250000 134.250000 9.174240 0.112522 45.000000 45.000000 780.012445 -50.514199
42 47519.202367 134.250000 1530.999508 819.000207 3750.000000 134.250000 134.250000 9.054902 0.159743 45.000000 45.000000 547.986692 111.743161
43 47353.974965 133.750000 1531.999505 822.000205 3750.000000 133.750000 133.750000 1.892158 0.160545 45.000000 45.000000 547.813302 111.412968
44 47623.725236 132.750000 374.000213 1671.999787 3750.000000 132.750000 132.750000 9.073213 0.566604 45.000000 45.000000 917.825390 -44.911717
45 47623.726944 132.500000 372.000213 1668.999787 3750.000000 132.500000 132.500000 9.074318 0.547219 45.000000 45.000000 917.119647 -45.132527
46 47076.000550 130.750000 947.000036 107.000281 3750.000000 130.750000 130.750000 8.306707 0.518414 45.000000 45.000000 918.068342 -175.314101
47 47075.998365 126.000000 945.000037 108.000281 3750.000000 126.000000 126.000000 7.728922 0.418378 45.000000 45.000000 917.237418 -175.184484
48 47309.272679 124.250000 288.000348 758.000130 3750.000000 124.250000 124.250000 8.999697 0.661052 45.000000 45.000000 780.032961 -109.782289
49 57049.228450 123.500000 289.888400 755.987285 8820.279663 123.500000 123.500000 1.026584 0.220178 52.000000 52.000000 778.941692 -109.968612
50 37173.357343 123.500000 288.907307 756.023545 6024.000000 123.500000 123.500000 0.992033 0.072770 52.000000 52.000000 779.851506 -109.941492
51 47626.363412 122.750000 1622.999717 526.000247 3750.000000 122.750000 122.750000 9.173644 0.674513 45.000000 45.000000 779.240922 129.532556
52 47626.329282 120.500000 1601.999790 1731.999757 3750.000000 120.500000 120.500000 9.177232 0.451662 45.000000 45.000000 916.787550 39.245434
53 95252.541808 119.375000 1599.499790 1733.499756 3750.000000 119.250000 119.500000 9.177620 0.573829 90.000000 90.000000 916.445530 39.021075
54 47088.113041 118.750000 122.000273 1201.999939 3750.000000 118.750000 118.750000 7.528940 0.095911 45.000000 45.000000 917.823233 -78.690068
55 94183.151518 118.250000 122.000273 1198.999940 7500.000000 118.250000 118.250000 1.536595 0.540894 45.000000 45.000000 917.239602 -78.873825
56 47623.726374 118.000000 1668.999787 372.000214 3750.000000 118.000000 118.000000 7.481193 0.477761 45.000000 45.000000 917.119647 135.132527
57 47623.724270 117.750000 1670.999786 375.000213 3750.000000 117.750000 117.750000 9.073193 0.567479 45.000000 45.000000 916.411178 134.911581
58 47310.659417 114.750000 1753.999651 1285.999869 3750.000000 114.750000 114.750000 1.535302 0.662731 45.000000 45.000000 778.151284 70.167870
59 47088.450652 114.000000 1752.999028 1287.999566 7495.479009 114.000000 114.000000 0.999500 0.073714 52.000000 52.000000 777.891604 70.004313
60 47101.949185 114.000000 1753.999771 1288.000532 7508.016745 114.000000 114.000000 0.999679 0.073510 52.000000 52.000000 778.832426 70.029421
61 47088.594889 108.250000 1919.999726 842.000061 3750.000000 108.250000 108.250000 1.536397 0.542334 45.000000 45.000000 915.862154 101.334470
62 94183.609600 107.750000 1920.999727 845.000060 7500.000000 107.750000 107.750000 1.536593 0.096087 45.000000 45.000000 916.258417 101.138241
63 86821.611577 103.750000 663.584955 1911.959616 12958.098945 103.750000 103.750000 0.995568 0.065638 52.000000 52.000000 959.421421 -21.936214
64 55436.054162 103.536384 662.926443 1912.925909 17098.706125 103.500000 103.750000 9.060132 0.091549 97.000000 97.000000 960.604711 -21.945396
65 47102.229590 103.000000 860.000074 260.000324 3750.000000 103.000000 103.000000 8.700629 0.112992 45.000000 45.000000 779.029834 -167.997706
66 142157.568094 96.416671 840.666934 1460.999431 7500.000000 96.250000 96.500000 9.073392 1.086983 90.000000 90.000000 475.230901 -22.517848
67 47625.493192 94.500000 300.000251 1588.999791 3750.000000 94.500000 94.500000 9.189184 0.095614 45.000000 45.000000 918.026362 -51.856796
68 47624.947301 93.500000 312.000214 378.000201 3750.000000 93.500000 93.500000 5.422810 0.315167 45.000000 45.000000 958.559042 -132.209357
69 47592.287634 93.500000 250.000284 526.000193 3750.000000 93.500000 93.500000 8.454309 0.575079 45.000000 45.000000 917.605236 -122.720219
70 47586.887098 93.250000 362.000336 1438.999777 3750.000000 93.250000 93.250000 9.208934 0.271415 45.000000 45.000000 780.697361 -57.714559
71 47075.999931 93.000000 64.000274 971.000024 3750.000000 93.000000 93.000000 7.726030 0.456813 45.000000 45.000000 959.356280 -93.047316
72 47587.893668 93.000000 364.000336 1438.999776 3750.000000 93.000000 93.000000 6.898050 0.112737 45.000000 45.000000 779.007298 -57.635988
73 47584.800982 92.500000 730.000316 557.000479 3750.000000 92.500000 92.500000 9.208419 0.159949 45.000000 45.000000 549.079566 -147.872948
74 47591.658333 92.500000 250.000285 527.000192 3750.000000 92.500000 92.500000 7.805732 0.392253 45.000000 45.000000 917.065085 -122.667656
75 47113.896009 92.250000 127.000277 823.000065 3750.000000 92.250000 92.250000 8.725098 0.532024 45.000000 45.000000 916.856302 -102.535586
76 47075.999680 92.250000 65.000275 971.000024 3750.000000 92.250000 92.250000 7.165638 0.462269 45.000000 45.000000 958.357695 -93.050494
77 47584.800982 91.250000 730.000316 557.000479 3750.000000 91.250000 91.250000 9.208419 0.159949 45.000000 45.000000 549.079566 -147.872948
78 47075.999837 90.500000 547.000553 997.000048 3750.000000 90.500000 90.500000 7.186819 0.984845 45.000000 45.000000 475.656885 -93.012785
79 47273.261254 90.500000 486.000460 1142.999891 3750.000000 90.500000 90.500000 8.733523 0.342924 45.000000 45.000000 549.487471 -77.278926
80 47625.083010 89.750000 669.000434 704.000404 3750.000000 89.750000 89.750000 9.135130 0.905627 45.000000 45.000000 475.113078 -132.014102
81 47076.000439 89.750000 548.000555 997.000048 3750.000000 89.750000 89.750000 7.408618 0.990099 45.000000 45.000000 474.658268 -93.019130
82 47076.000500 84.250000 1494.999444 1046.999952 3750.000000 84.250000 84.250000 8.196977 0.185649 45.000000 45.000000 473.659658 86.974499
83 47273.791238 84.000000 1556.999539 901.000109 3750.000000 84.000000 84.000000 8.734559 0.282105 45.000000 45.000000 548.512061 102.744076
84 95175.800350 82.625000 1679.999664 605.000224 3750.000000 82.500000 82.750000 6.944273 0.112737 90.000000 90.000000 779.007298 122.364012
85 47625.026989 82.500000 1373.999566 1339.999595 3750.000000 82.500000 82.500000 8.687376 0.184997 45.000000 45.000000 474.370569 47.905056
86 142302.315050 82.416491 1201.999753 583.000569 7500.000000 82.250000 82.500000 9.022706 0.185361 90.000000 90.000000 474.468558 157.705255
87 47075.999571 82.250000 1978.999725 1072.999976 3750.000000 82.250000 82.250000 7.165636 0.462269 45.000000 45.000000 958.357695 86.949506
88 47114.201317 81.500000 1915.999723 1220.999935 3750.000000 81.500000 81.500000 6.722730 0.096105 45.000000 45.000000 915.880166 77.450836
89 47075.999571 81.500000 1978.999725 1072.999976 3750.000000 81.500000 81.500000 7.165636 0.462269 45.000000 45.000000 958.357695 86.949506
90 47625.544754 81.250000 1742.999750 455.000209 3750.000000 81.250000 81.250000 9.185879 0.095696 45.000000 45.000000 917.240100 128.181785
91 42498.596843 81.000000 1792.999709 1517.999816 3750.000000 81.000000 81.000000 1.628179 0.097843 45.000000 45.000000 916.764075 57.245998
92 47583.618147 80.750000 1312.999684 1486.999521 3750.000000 80.750000 80.750000 6.997335 0.160105 45.000000 45.000000 548.548421 32.038597
93 47592.064938 80.250000 1792.999715 1516.999807 3750.000000 80.250000 80.250000 1.532739 0.575825 45.000000 45.000000 916.223428 57.298590
94 47583.618147 79.500000 1312.999684 1486.999521 3750.000000 79.500000 79.500000 6.997335 0.160105 45.000000 45.000000 548.548421 32.038597
95 47624.916608 78.750000 1730.999786 1665.999799 3750.000000 78.750000 78.750000 8.956631 0.091621 45.000000 45.000000 957.818583 47.750454
96 91389.866729 75.250000 1379.586937 132.168794 44435.650302 75.250000 75.250000 0.882309 0.057634 52.000000 52.000000 958.993219 158.106814
97 61110.514710 75.056231 1378.902886 131.126031 16647.512022 75.000000 75.250000 9.052516 0.117120 96.000000 97.000000 959.859058 158.165337
98 47099.763349 67.250000 124.000275 1210.999937 3750.000000 67.250000 67.250000 8.695178 0.095922 45.000000 45.000000 917.673408 -78.114558
99 93789.461189 66.750000 125.006644 1212.485941 13312.467832 66.750000 66.750000 1.013634 0.084438 52.000000 52.000000 916.996169 -78.010749
100 771.167101 66.750000 124.708862 1212.868433 37123.582160 66.750000 66.750000 0.321347 0.604708 52.000000 52.000000 917.366964 -77.991245
101 47100.706514 62.250000 1182.999926 1783.999676 3750.000000 62.250000 62.250000 6.904369 0.113023 45.000000 45.000000 778.822497 11.930336
102 47289.726333 60.250000 285.000348 767.000124 3750.000000 60.250000 60.250000 8.902987 0.659605 45.000000 45.000000 779.867569 -109.085481
103 94568.291693 59.375003 284.000347 769.500112 3750.000000 59.250000 59.500000 6.478048 0.658975 90.000000 90.000000 779.838077 -108.853159
104 47623.849778 58.500000 382.000211 1680.999785 3750.000000 58.500000 58.500000 8.783692 0.333336 45.000000 45.000000 918.629657 -44.162015
105 47623.940054 58.000000 386.000211 1682.999784 3750.000000 58.000000 58.000000 9.088374 0.533978 45.000000 45.000000 917.287548 -43.895746
106 47100.032722 56.750000 1918.999725 833.000063 3750.000000 56.750000 56.750000 8.542582 0.504589 45.000000 45.000000 916.694869 101.898315
107 94204.488528 56.124998 1917.999724 831.500056 3750.000000 56.000000 56.250000 8.702087 0.278340 90.000000 90.000000 916.131258 102.033604
108 47626.250022 53.750000 430.000209 321.000236 3750.000000 53.750000 53.750000 1.531783 0.572303 45.000000 45.000000 917.531701 -139.818646
109 47625.922679 52.750000 432.000272 1531.999754 3750.000000 52.750000 52.750000 9.155021 0.672599 45.000000 45.000000 779.871417 -49.159643
110 95252.256114 52.625000 426.500209 324.000234 3750.000000 52.500000 52.750000 9.160332 0.544511 90.000000 90.000000 917.834094 -139.507041
111 47290.401046 50.750000 1757.999652 1276.999876 3750.000000 50.750000 50.750000 8.793512 0.660462 45.000000 45.000000 778.922605 70.890467
112 47939.790049 50.000000 1758.999132 1274.991319 7620.892126 50.000000 50.000000 1.000494 0.073614 52.000000 52.000000 779.212633 71.054078
113 46250.618276 50.000000 1758.999906 1273.990548 7382.143789 50.000000 50.000000 0.999497 0.073420 52.000000 52.000000 778.889016 71.123726
114 47623.878748 43.500000 1659.999789 363.000216 3750.000000 43.500000 43.500000 7.923523 0.394506 45.000000 45.000000 917.237399 135.927607
115 47623.940359 43.000000 1657.999789 361.000216 3750.000000 43.000000 43.000000 9.075305 0.485795 45.000000 45.000000 917.287548 136.104254
116 47387.768472 41.500000 515.000491 1233.999782 3750.000000 41.500000 41.500000 9.078656 0.945426 45.000000 45.000000 549.538360 -67.307955
117 42498.586163 41.000000 517.000535 1235.999779 3750.000000 41.000000 41.000000 1.641954 0.243316 45.000000 45.000000 548.470934 -67.034596
118 42498.597027 41.000000 1610.999694 512.000264 3750.000000 41.000000 41.000000 1.348222 0.099148 45.000000 45.000000 779.115120 130.888449
119 47626.268311 37.750000 1612.999790 1722.999764 3750.000000 37.750000 37.750000 9.165549 0.572748 45.000000 45.000000 916.886809 40.133612
120 47075.999719 37.250000 72.000260 1157.999951 3750.000000 37.250000 37.250000 1.535206 0.484610 45.000000 45.000000 959.685101 -81.853012
121 5202.366138 36.750000 1615.590729 1719.886578 6024.000000 36.750000 36.750000 9.809798 0.033278 52.000000 52.000000 916.185368 40.382984
122 90280.293366 36.750000 1616.564841 1720.013283 60239.999999 36.750000 36.750000 1.069341 0.067897 52.000000 52.000000 916.913242 40.424220
123 47546.326465 34.750000 1526.999509 810.000219 3750.000000 34.750000 34.750000 9.080587 0.159806 45.000000 45.000000 547.693720 112.772759
124 47076.000483 34.500000 105.000292 1006.000009 3750.000000 34.500000 34.500000 8.068835 0.504080 45.000000 45.000000 917.139283 -90.999607
125 47194.628815 34.500000 552.000522 1088.999902 3750.000000 34.500000 34.500000 6.679530 1.020024 45.000000 45.000000 474.750983 -81.886968
126 47075.999916 34.250000 1095.999964 1936.999719 3750.000000 34.250000 34.250000 8.302805 0.400055 45.000000 45.000000 917.987189 4.623693
127 42498.586518 34.000000 1526.999465 808.000221 3750.000000 34.000000 34.000000 1.641674 0.243354 45.000000 45.000000 548.470934 112.965404
128 47075.999705 33.750000 105.000292 1011.000006 3750.000000 33.750000 33.750000 4.506679 0.439042 45.000000 45.000000 917.065682 -90.687266
129 47076.000060 31.000000 1097.999964 1935.999719 3750.000000 31.000000 31.000000 8.273401 0.418576 45.000000 45.000000 917.154011 4.753265
130 47626.274345 29.250000 1599.999791 310.000244 3750.000000 29.250000 29.250000 8.250197 0.095707 45.000000 45.000000 917.075466 140.930386
131 47075.999221 29.000000 1490.999474 955.000099 3750.000000 29.000000 29.000000 1.535203 1.028618 45.000000 45.000000 473.761009 98.130100
132 42498.594935 27.000000 158.000328 714.000114 3750.000000 27.000000 27.000000 1.348222 0.133565 45.000000 45.000000 917.256433 -109.620210
133 47076.000443 26.250000 1970.999740 886.000049 3750.000000 26.250000 26.250000 7.816082 0.508400 45.000000 45.000000 958.695204 98.155458
134 47529.593341 24.500000 182.000279 560.000161 3750.000000 24.500000 24.500000 9.071092 0.548943 45.000000 45.000000 958.667504 -118.810793
135 47436.045289 24.000000 640.000143 1855.999707 3750.000000 24.000000 24.000000 9.119943 0.185837 45.000000 45.000000 917.321864 -24.609369
136 47075.998776 24.000000 1936.999708 1037.999991 3750.000000 24.000000 24.000000 8.069004 0.505191 45.000000 45.000000 915.139588 88.998209
137 47521.021844 23.750000 178.000279 566.000158 3750.000000 23.750000 23.750000 9.180175 0.548295 45.000000 45.000000 959.307764 -118.381659
138 47075.999946 23.250000 1938.999708 1033.999993 3750.000000 23.250000 23.250000 8.051813 0.095891 45.000000 45.000000 917.078222 89.250262
139 47526.758926 21.250000 605.000562 794.000323 3750.000000 21.250000 21.250000 9.183420 0.184866 45.000000 45.000000 475.260333 -118.668187
140 47519.192382 20.500000 604.000563 797.000319 3750.000000 20.500000 20.500000 9.102787 0.393959 45.000000 45.000000 474.708738 -118.292579
141 47545.833701 17.000000 225.000291 1475.999826 3750.000000 17.000000 17.000000 9.193337 0.095776 45.000000 45.000000 917.237362 -60.332598
142 95259.037979 16.374794 227.501116 1479.999825 3750.000000 16.250000 16.500000 9.195714 0.095746 90.000000 90.000000 916.623903 -60.022526
143 42498.594112 15.750000 1884.999672 1329.999886 3750.000000 15.750000 15.750000 1.348222 0.084302 45.000000 45.000000 916.314555 70.358794
144 47529.054218 15.250000 1436.999436 1249.999674 3750.000000 15.250000 15.250000 9.141273 0.588800 45.000000 45.000000 473.506476 61.215714
145 47519.190390 14.500000 1439.999437 1246.999681 3750.000000 14.500000 14.500000 9.103775 0.392288 45.000000 45.000000 474.708738 61.707421
146 47624.636094 13.500000 618.000370 650.000350 3750.000000 13.500000 13.500000 9.121671 0.188585 45.000000 45.000000 549.180699 -132.638625
147 47536.387996 12.250000 642.000201 1702.999658 3750.000000 12.250000 12.250000 9.188591 0.112656 45.000000 45.000000 779.846383 -29.161645
148 47530.158097 12.000000 1860.999721 1483.999839 3750.000000 12.000000 12.000000 9.020825 0.549393 45.000000 45.000000 957.791409 61.160378
149 47530.032083 11.500000 646.000198 1704.999657 3750.000000 11.500000 11.500000 9.173524 0.112688 45.000000 45.000000 779.656580 -28.833330
150 47522.658725 11.250000 1864.999721 1478.999841 3750.000000 11.250000 11.250000 9.138307 0.548574 45.000000 45.000000 958.904263 61.537370
151 47624.586080 5.000000 1424.999630 1393.999649 3750.000000 5.000000 5.000000 7.826745 0.160008 45.000000 45.000000 548.445477 47.290611
152 42498.596015 5.000000 1817.999699 568.000169 3750.000000 5.000000 5.000000 9.132951 0.084297 45.000000 45.000000 916.368576 119.698350
153 95416.376514 4.375000 1815.999710 564.000175 3750.000000 4.250000 4.500000 8.840595 0.095393 90.000000 90.000000 916.623903 119.977474
154 47075.999964 2.250000 243.000344 1030.999993 3750.000000 2.250000 2.250000 8.045790 0.112881 45.000000 45.000000 779.051644 -89.338076
155 32157.400999 1.500000 241.825797 1035.998532 12445.289891 1.500000 1.500000 0.967650 0.073294 45.000000 52.000000 780.299780 -88.972062
156 62127.779847 1.500000 242.850276 1036.000177 9621.622782 1.500000 1.500000 9.070679 0.594080 50.000000 52.000000 779.275495 -88.970590
157 47560.553750 1.250000 626.000211 350.000341 3750.000000 1.250000 1.250000 9.200000 0.433424 45.000000 45.000000 779.999599 -149.489763
158 47566.511359 0.500000 622.000214 353.000341 3750.000000 0.500000 0.500000 1.533038 0.676436 45.000000 45.000000 779.461592 -149.124488
159 47434.658522 -0.750000 1402.999858 188.000293 3750.000000 -0.750000 -0.750000 9.119593 0.229773 45.000000 45.000000 916.905886 155.447443
160 47483.268024 -5.000000 611.000155 202.000292 3750.000000 -5.000000 -5.000000 8.766347 0.526648 45.000000 45.000000 917.235190 -153.379078
161 47076.000500 -5.000000 1494.999444 1046.999952 3750.000000 -5.000000 -5.000000 8.196977 0.185649 45.000000 45.000000 473.659658 86.974499
162 47076.000276 -5.000000 1494.999444 997.000048 3750.000000 -5.000000 -5.000000 7.729267 0.185649 45.000000 45.000000 473.659658 93.025501
163 47535.157956 -6.000000 1400.999800 341.000343 3750.000000 -6.000000 -6.000000 9.185990 0.112727 45.000000 45.000000 779.359597 150.902553
164 47075.998570 -6.750000 1799.999656 1013.000007 3750.000000 -6.750000 -6.750000 3.442483 0.592498 45.000000 45.000000 778.051711 90.662775
165 47528.763965 -6.750000 1396.999802 339.000343 3750.000000 -6.750000 -6.750000 8.809585 0.260319 45.000000 45.000000 779.174809 151.231087
166 94152.001408 -7.375000 1800.999657 1008.000011 3750.000000 -7.500000 -7.250000 7.630982 0.438735 90.000000 90.000000 779.125449 91.029595
167 47521.612047 -9.500000 216.000292 586.000166 3750.000000 -9.500000 -9.500000 9.167128 0.095881 45.000000 45.000000 916.368586 -118.410858
168 58055.367679 -10.250000 211.431749 590.938250 10169.500056 -10.250000 -10.250000 1.096401 0.598674 56.000000 56.000000 918.060521 -118.004131
169 48549.636930 -10.250000 211.515125 592.162307 51294.999955 -10.250000 -10.250000 1.122956 0.043760 56.000000 56.000000 917.412761 -117.939080
170 47623.746878 -11.250000 631.000357 1407.999646 3750.000000 -11.250000 -11.250000 9.078942 0.946870 45.000000 45.000000 549.432841 -45.368694
171 47558.426747 -16.250000 1415.999790 1693.999658 3750.000000 -16.250000 -16.250000 9.199097 0.126017 45.000000 45.000000 778.986120 30.383501
172 47552.529588 -16.750000 192.000278 1501.999831 3750.000000 -16.750000 -16.750000 9.193801 0.091620 45.000000 45.000000 958.801010 -59.958636
173 47566.510236 -16.750000 1421.999786 1690.999659 3750.000000 -16.750000 -16.750000 1.533038 0.676436 45.000000 45.000000 779.461592 30.875512
174 47558.535623 -17.500000 195.000278 1506.999829 3750.000000 -17.500000 -17.500000 9.199143 0.091623 45.000000 45.000000 958.724869 -59.610207
175 47551.243668 -20.000000 611.000562 1258.999660 3750.000000 -20.000000 -20.000000 9.195904 0.185158 45.000000 45.000000 474.435851 -60.030432
176 47779.604866 -20.000000 1411.999644 636.000353 3750.000000 -20.000000 -20.000000 9.058004 0.441175 45.000000 45.000000 548.721650 134.704663
177 47555.945087 -20.750000 612.000561 1260.999657 3750.000000 -20.750000 -20.750000 7.630346 1.110468 45.000000 45.000000 474.573889 -59.760945
178 47522.214319 -21.250000 1826.999708 1457.999834 3750.000000 -21.250000 -21.250000 9.167609 0.095973 45.000000 45.000000 915.489151 61.559365
179 47354.134581 -22.000000 168.000296 1356.999878 3750.000000 -22.000000 -22.000000 9.046339 0.095872 45.000000 45.000000 917.355118 -68.581330
180 47072.106778 -22.000000 1832.000255 1452.999928 7501.255849 -22.000000 -22.000000 0.999551 0.062416 56.000000 56.000000 917.530028 61.982624
181 47123.845878 -22.000000 1830.999729 1451.999983 7502.797958 -22.000000 -22.000000 0.999644 0.062558 56.000000 56.000000 916.177137 62.008437
182 47552.310797 -26.250000 1431.999438 785.000341 3750.000000 -26.250000 -26.250000 9.195525 0.185496 45.000000 45.000000 473.569823 120.030006
183 47556.987538 -27.000000 1430.999438 783.000345 3750.000000 -27.000000 -27.000000 1.533138 1.112548 45.000000 45.000000 473.710223 120.299967
184 47076.000695 -28.500000 106.000289 1056.999981 3750.000000 -28.500000 -28.500000 8.148339 0.472300 45.000000 45.000000 916.668134 -87.811816
185 47075.998275 -29.250000 106.000289 1061.999979 3750.000000 -29.250000 -29.250000 8.051964 0.510213 45.000000 45.000000 916.872657 -87.499590
186 47553.053864 -29.250000 1850.999722 542.000169 3750.000000 -29.250000 -29.250000 9.196722 0.091702 45.000000 45.000000 957.935476 120.071307
187 47558.535740 -30.250000 1848.999722 537.000171 3750.000000 -30.250000 -30.250000 9.199143 0.091623 45.000000 45.000000 958.724869 120.389793
188 42498.593446 -32.000000 69.000332 913.000037 3750.000000 -32.000000 -32.000000 1.348222 0.080532 45.000000 45.000000 959.212886 -96.524889
189 47354.743928 -33.250000 1874.999704 687.000122 3750.000000 -33.250000 -33.250000 9.046950 0.095969 45.000000 45.000000 916.424254 111.441501
190 47076.001185 -34.750000 550.000531 968.000087 3750.000000 -34.750000 -34.750000 8.415737 0.689086 45.000000 45.000000 475.078403 -96.526646
191 47361.781647 -39.000000 512.000494 819.000207 3750.000000 -39.000000 -39.000000 9.040024 0.819615 45.000000 45.000000 548.915670 -111.704494
192 47076.001252 -39.000000 1936.999710 987.000019 3750.000000 -39.000000 -39.000000 8.057303 0.096036 45.000000 45.000000 915.668864 92.190573
193 47352.950466 -39.500000 511.000494 822.000204 3750.000000 -39.500000 -39.500000 9.045122 0.160274 45.000000 45.000000 548.744397 -111.374849
194 47076.000282 -39.750000 1936.999711 983.000021 3750.000000 -39.750000 -39.750000 8.156752 0.096018 45.000000 45.000000 915.830481 92.440637
195 47076.000519 -40.250000 1492.999468 1075.999912 3750.000000 -40.250000 -40.250000 8.416526 1.005104 45.000000 45.000000 474.084897 83.459617
196 42498.593570 -43.000000 1973.999668 1130.999963 3750.000000 -43.000000 -43.000000 4.057341 0.080616 45.000000 45.000000 958.219369 83.468317
197 47626.341091 -43.250000 441.000209 1731.999758 3750.000000 -43.250000 -43.250000 8.978353 0.095670 45.000000 45.000000 917.420521 -39.293801
198 93894.859550 -44.250000 443.497522 1733.480198 11909.631292 -44.250000 -44.250000 3.508750 0.078950 56.000000 56.000000 916.989198 -39.114460
199 849.763267 -44.250000 443.192958 1734.348292 51294.999999 -44.250000 -44.250000 0.411138 0.120308 56.000000 56.000000 917.854934 -39.095024
200 47626.364486 -45.750000 420.000283 526.000246 3750.000000 -45.750000 -45.750000 4.715187 0.229332 45.000000 45.000000 780.012445 -129.485801
201 47362.814207 -45.750000 1530.999506 1224.999792 3750.000000 -45.750000 -45.750000 9.054438 0.717604 45.000000 45.000000 547.986690 68.256839
202 47353.974701 -46.250000 1531.999505 1221.999795 3750.000000 -46.250000 -46.250000 9.046182 0.160545 45.000000 45.000000 547.813302 68.587032
203 47623.723350 -47.250000 374.000213 372.000213 3750.000000 -47.250000 -47.250000 9.071209 0.566603 45.000000 45.000000 917.825390 -135.088283
204 47623.726219 -47.500000 372.000213 375.000213 3750.000000 -47.500000 -47.500000 7.481193 0.477760 45.000000 45.000000 917.119647 -134.867473
205 47075.999705 -49.250000 947.000036 1936.999719 3750.000000 -49.250000 -49.250000 8.303052 0.095779 45.000000 45.000000 918.068342 -4.685899
206 47076.000480 -54.000000 945.000037 1935.999719 3750.000000 -54.000000 -54.000000 8.314600 0.110662 45.000000 45.000000 917.237418 -4.815516
207 47309.965779 -55.750000 289.000348 1285.999870 3750.000000 -55.750000 -55.750000 1.535306 0.634328 45.000000 45.000000 779.092049 -70.192821
208 9472.210833 -56.500000 288.775678 1287.557449 60239.999909 -56.500000 -56.500000 0.775147 0.058767 52.000000 52.000000 779.832460 -70.090746
209 85935.284789 -56.500000 289.573985 1288.036531 52441.180675 -56.500000 -56.500000 1.112043 0.073765 52.000000 52.000000 779.245342 -70.037638
210 47626.365736 -57.250000 1622.999717 1517.999753 3750.000000 -57.250000 -57.250000 8.754996 0.616813 45.000000 45.000000 779.240922 50.467444
211 47626.329328 -59.500000 1601.999790 312.000243 3750.000000 -59.500000 -59.500000 8.780395 0.095736 45.000000 45.000000 916.787550 140.754566
212 47626.289770 -60.500000 1599.999790 311.000244 3750.000000 -60.500000 -60.500000 9.178874 0.095788 45.000000 45.000000 916.299302 140.890976
213 47088.355629 -61.250000 123.000274 842.000061 3750.000000 -61.250000 -61.250000 8.668367 0.541590 45.000000 45.000000 916.842673 -101.322188
214 94183.153030 -61.750000 122.000273 845.000060 7500.000000 -61.750000 -61.750000 8.658323 0.540880 45.000000 45.000000 917.239602 -101.126175
215 47623.724898 -62.000000 1668.999787 1671.999786 3750.000000 -62.000000 -62.000000 9.074318 0.095683 45.000000 45.000000 917.119647 44.867473
216 47623.722429 -62.250000 1670.999786 1668.999787 3750.000000 -62.250000 -62.250000 9.073240 0.095757 45.000000 45.000000 916.411178 45.088419
217 47309.965800 -65.250000 1754.999652 758.000130 3750.000000 -65.250000 -65.250000 1.535307 0.653875 45.000000 45.000000 779.092049 109.807179
218 116.467684 -66.000000 1754.367319 756.930516 6024.040479 -66.000000 -66.000000 0.234313 0.628237 6.000000 52.000000 778.860527 109.896971
219 94351.051629 -66.000000 1753.497268 756.000081 13235.770959 -66.000000 -66.000000 9.941431 0.074820 52.000000 52.000000 778.359949 109.983170
220 47087.165403 -71.750000 1920.999727 1200.999939 3750.000000 -71.750000 -71.750000 8.663211 0.541649 45.000000 45.000000 916.646871 78.739102
221 94183.610142 -72.250000 1920.999727 1198.999940 7500.000000 -72.250000 -72.250000 8.659684 0.096087 45.000000 45.000000 916.258417 78.861759
222 47702.402110 -76.250000 663.006263 132.000819 7587.265557 -76.250000 -76.250000 5.256479 0.059741 52.000000 52.000000 959.674447 -158.032620
223 93854.849828 -76.376170 664.003492 131.495409 7415.556760 -76.500000 -76.250000 9.058364 0.540516 97.000000 97.000000 960.231437 -158.109949
224 47102.230240 -77.000000 860.000074 1783.999676 3750.000000 -77.000000 -77.000000 8.700629 0.122407 45.000000 45.000000 779.029834 -12.002295
225 137429.022063 -83.577310 841.000248 583.000584 7500.000000 -83.750000 -83.500000 9.042728 0.184779 90.000000 90.000000 474.848781 -157.593612
226 47625.492420 -85.500000 300.000251 455.000209 3750.000000 -85.500000 -85.500000 9.189333 0.095614 45.000000 45.000000 918.026362 -128.143204
227 47592.284252 -86.500000 250.000284 1517.999807 3750.000000 -86.500000 -86.500000 8.969213 0.574030 45.000000 45.000000 917.605236 -57.279781
228 47624.946411 -86.500000 312.000214 1665.999800 3750.000000 -86.500000 -86.500000 9.037251 0.091551 45.000000 45.000000 958.559042 -47.790643
229 95174.784096 -86.875000 363.000336 605.000224 3750.000000 -87.000000 -86.750000 8.753005 0.552818 90.000000 90.000000 779.852146 -122.324684
230 42498.593586 -87.000000 64.000333 1072.999983 3750.000000 -87.000000 -87.000000 1.348222 0.105687 45.000000 45.000000 959.356221 -86.952684
231 47591.658900 -87.500000 250.000285 1516.999808 3750.000000 -87.500000 -87.500000 9.200662 0.572157 45.000000 45.000000 917.065085 -57.332344
232 47584.802348 -87.500000 730.000316 1486.999521 3750.000000 -87.500000 -87.500000 9.158367 0.960875 45.000000 45.000000 549.079566 -32.127052
233 42498.593586 -87.750000 64.000333 1072.999983 3750.000000 -87.750000 -87.750000 1.348222 0.105687 45.000000 45.000000 959.356221 -86.952684
234 47113.894620 -87.750000 127.000277 1220.999935 3750.000000 -87.750000 -87.750000 8.663318 0.545247 45.000000 45.000000 916.856302 -77.464414
235 47584.802348 -88.750000 730.000316 1486.999521 3750.000000 -88.750000 -88.750000 9.158367 0.960875 45.000000 45.000000 549.079566 -32.127052
236 47118.107759 -89.500000 486.000463 901.000110 3750.000000 -89.500000 -89.500000 8.725079 0.323498 45.000000 45.000000 549.487468 -102.721074
237 47076.000314 -89.500000 548.000555 1046.999952 3750.000000 -89.500000 -89.500000 8.152328 0.990077 45.000000 45.000000 474.658268 -86.980870
238 47076.000314 -90.250000 548.000555 1046.999952 3750.000000 -90.250000 -90.250000 8.152328 0.990077 45.000000 45.000000 474.658268 -86.980870
239 47781.046527 -90.250000 669.000432 1339.999597 3750.000000 -90.250000 -90.250000 6.339557 1.101215 45.000000 45.000000 475.113080 -47.985898
240 47076.000276 -95.750000 1494.999444 997.000048 3750.000000 -95.750000 -95.750000 7.729267 0.185649 45.000000 45.000000 473.659658 93.025501
241 42498.581152 -96.000000 1556.999431 1142.999875 3750.000000 -96.000000 -96.000000 1.348222 0.282772 45.000000 45.000000 548.511952 77.255923
242 47587.391845 -97.250000 1680.999664 1438.999776 3750.000000 -97.250000 -97.250000 8.721502 0.555393 45.000000 45.000000 779.852146 57.675316
243 47588.393946 -97.500000 1678.999663 1438.999775 3750.000000 -97.500000 -97.500000 8.223509 0.675537 45.000000 45.000000 778.162817 57.596574
244 47780.982295 -97.500000 1373.999568 704.000403 3750.000000 -97.500000 -97.500000 6.592418 1.103171 45.000000 45.000000 474.370572 132.094944
245 137423.164769 -97.577313 1202.309006 1460.999415 7500.000000 -97.750000 -97.500000 8.958099 0.828725 90.000000 90.000000 474.848781 22.406388
246 47069.607974 -97.750000 1978.999728 971.000025 3750.000000 -97.750000 -97.750000 1.535042 0.091773 45.000000 45.000000 958.357697 93.050494
247 47075.999568 -98.500000 1977.999725 971.000024 3750.000000 -98.500000 -98.500000 8.204554 0.091851 45.000000 45.000000 957.359113 93.053679
248 47114.204652 -98.500000 1915.999723 823.000065 3750.000000 -98.500000 -98.500000 8.720997 0.096105 45.000000 45.000000 915.880166 102.549164
249 47625.543769 -98.750000 1742.999750 1588.999791 3750.000000 -98.750000 -98.750000 9.188954 0.095696 45.000000 45.000000 917.240100 51.818215
250 47592.690633 -99.000000 1792.999715 526.000193 3750.000000 -99.000000 -99.000000 8.576438 0.575607 45.000000 45.000000 916.764075 122.754001
251 47583.620104 -99.250000 1312.999684 557.000479 3750.000000 -99.250000 -99.250000 7.619359 0.961773 45.000000 45.000000 548.548421 147.961403
252 47592.062092 -99.750000 1792.999715 527.000193 3750.000000 -99.750000 -99.750000 9.209888 0.575888 45.000000 45.000000 916.223428 122.701410
253 47583.620104 -100.500000 1312.999684 557.000479 3750.000000 -100.500000 -100.500000 7.619359 0.961773 45.000000 45.000000 548.548421 147.961403
254 47624.915894 -101.250000 1730.999786 378.000201 3750.000000 -101.250000 -101.250000 8.603254 0.091621 45.000000 45.000000 957.818583 132.249546
255 102220.402373 -104.750000 1379.448150 1911.940568 60238.351900 -104.750000 -104.750000 0.928834 0.060000 52.000000 52.000000 959.042958 21.883057
256 53341.533603 -104.971997 1380.118155 1912.945177 18272.689064 -105.000000 -104.750000 9.058509 0.443364 93.000000 97.000000 960.231437 21.890051
257 47099.764528 -112.750000 124.000275 833.000063 3750.000000 -112.750000 -112.750000 8.695183 0.542235 45.000000 45.000000 917.673407 -101.885442
258 93285.862576 -113.250000 124.996588 831.479804 13608.160551 -113.250000 -113.250000 1.002911 0.069994 52.000000 52.000000 917.013122 -101.991214
259 1176.458263 -113.250000 124.946046 832.729282 60239.953433 -113.250000 -113.250000 0.434176 0.059110 52.000000 52.000000 916.803797 -101.914175
260 47100.708576 -117.750000 1182.999926 260.000324 3750.000000 -117.750000 -117.750000 8.565111 0.113023 45.000000 45.000000 778.822497 168.069664
261 47482.014052 -118.000000 1431.999845 1841.999708 3750.000000 -118.000000 -118.000000 1.963648 0.552380 45.000000 45.000000 916.787541 26.565051
262 47289.725888 -119.750000 285.000348 1276.999876 3750.000000 -119.750000 -119.750000 8.967845 0.112806 45.000000 45.000000 779.867569 -70.914519
263 94568.297405 -120.624997 284.000347 1274.499888 3750.000000 -120.750000 -120.500000 8.970453 0.112813 90.000000 90.000000 779.838077 -71.146841
264 47623.860949 -121.500000 383.000211 363.000215 3750.000000 -121.500000 -121.500000 9.092015 0.476948 45.000000 45.000000 917.933247 -135.882762
265 47623.922900 -122.000000 385.000211 361.000216 3750.000000 -122.000000 -122.000000 9.096002 0.559767 45.000000 45.000000 917.981179 -136.059277
266 47100.032498 -123.250000 1918.999725 1210.999937 3750.000000 -123.250000 -123.250000 8.677071 0.403540 45.000000 45.000000 916.694869 78.101685
267 94204.488015 -123.875002 1917.999724 1212.499944 3750.000000 -124.000000 -123.750000 8.701975 0.485043 90.000000 90.000000 916.131258 77.966396
268 47626.250282 -126.250000 430.000209 1722.999764 3750.000000 -126.250000 -126.250000 8.559978 0.095653 45.000000 45.000000 917.531701 -40.181354
269 47625.921208 -127.250000 432.000272 512.000246 3750.000000 -127.250000 -127.250000 3.797074 0.672599 45.000000 45.000000 779.871417 -130.840357
270 95252.257238 -127.375000 426.500209 1719.999766 3750.000000 -127.500000 -127.250000 9.158962 0.095688 90.000000 90.000000 917.834094 -40.492959
271 47290.402475 -129.250000 1757.999652 767.000124 3750.000000 -129.250000 -129.250000 8.738784 0.112942 45.000000 45.000000 778.922605 109.109533
272 93304.907860 -130.000000 1758.995120 769.517262 15732.543003 -130.000000 -130.000000 1.009193 0.082370 52.000000 52.000000 779.043863 108.910640
273 1035.445250 -130.000000 1759.247085 768.128600 9562.812998 -130.000000 -130.000000 5.115928 0.019551 52.000000 52.000000 779.733257 109.001172
274 47623.861215 -136.500000 1660.999789 1680.999785 3750.000000 -136.500000 -136.500000 9.092015 0.483109 45.000000 45.000000 917.933247 44.117238
275 47623.955240 -137.000000 1656.999789 1682.999783 3750.000000 -137.000000 -137.000000 9.098009 0.501168 45.000000 45.000000 916.594483 43.850702
276 47388.811362 -138.500000 516.000492 810.000219 3750.000000 -138.500000 -138.500000 9.079432 0.160281 45.000000 45.000000 548.615903 -112.732334
277 47393.780879 -139.000000 516.000491 808.000221 3750.000000 -139.000000 -139.000000 9.083410 0.947375 45.000000 45.000000 549.391853 -112.924711
278 47625.892739 -139.000000 1610.999728 1531.999754 3750.000000 -139.000000 -139.000000 4.249364 0.673197 45.000000 45.000000 779.115157 49.111551
279 47626.265984 -142.250000 1612.999790 321.000236 3750.000000 -142.250000 -142.250000 9.165548 0.095721 45.000000 45.000000 916.886809 139.866388
280 47194.991329 -142.750000 72.000258 886.000049 3750.000000 -142.750000 -142.750000 7.433205 0.474239 45.000000 45.000000 959.685103 -98.146988
281 47438.278675 -143.250000 1616.996047 324.000518 7547.633255 -143.250000 -143.250000 1.333613 0.062482 52.000000 52.000000 917.182410 139.554714
282 46753.315766 -143.250000 1615.996166 323.999802 7451.802502 -143.250000 -143.250000 0.999517 0.062481 52.000000 52.000000 916.534627 139.602312
283 47388.811704 -145.250000 1527.999508 1233.999781 3750.000000 -145.250000 -145.250000 9.079620 0.160281 45.000000 45.000000 548.615903 67.267666
284 42498.573551 -145.500000 552.000667 955.000092 3750.000000 -145.500000 -145.500000 8.504420 1.026362 45.000000 45.000000 474.750840 -98.113035
285 47077.984453 -145.500000 106.000292 1037.999991 3750.000000 -145.500000 -145.500000 1.534744 0.095984 45.000000 45.000000 916.139435 -88.999302
286 47075.999697 -145.750000 1095.999964 107.000281 3750.000000 -145.750000 -145.750000 5.774179 0.095788 45.000000 45.000000 917.987189 175.376307
287 47395.877671 -146.000000 1525.999507 1235.999778 3750.000000 -146.000000 -146.000000 9.086090 0.950493 45.000000 45.000000 547.550370 66.993770
288 47075.999702 -146.250000 104.000291 1033.999993 3750.000000 -146.250000 -146.250000 1.534842 0.095787 45.000000 45.000000 918.078136 -89.251078
289 47075.853260 -149.000000 1097.999964 108.000281 3750.000000 -149.000000 -149.000000 1.534711 0.095875 45.000000 45.000000 917.154011 175.246735
290 47075.999627 -151.000000 1490.999474 1088.999901 3750.000000 -151.000000 -151.000000 8.505347 0.185664 45.000000 45.000000 473.761009 81.869900
291 47460.917940 -153.000000 158.000295 1329.999891 3750.000000 -153.000000 -153.000000 1.528207 0.095458 45.000000 45.000000 917.256466 -70.379791
292 47075.544640 -153.750000 1970.999740 1157.999954 3750.000000 -153.750000 -153.750000 1.535235 0.091752 45.000000 45.000000 958.695204 81.844542
293 47529.593117 -155.500000 182.000279 1483.999839 3750.000000 -155.500000 -155.500000 9.184970 0.547590 45.000000 45.000000 958.667504 -61.189207
294 47436.045963 -156.000000 640.000143 188.000293 3750.000000 -156.000000 -156.000000 9.120725 0.569677 45.000000 45.000000 917.321864 -155.390631
295 47075.928555 -156.000000 1937.999708 1006.000009 3750.000000 -156.000000 -156.000000 8.068930 0.095990 45.000000 45.000000 916.139435 91.000698
296 42498.596570 -156.250000 178.000291 1478.999845 3750.000000 -156.250000 -156.250000 1.518330 0.080484 45.000000 45.000000 959.783500 -61.565820
297 47075.999724 -156.750000 1937.999708 1011.000006 3750.000000 -156.750000 -156.750000 4.335155 0.095998 45.000000 45.000000 916.065753 90.688017
298 47527.906729 -158.750000 606.000563 1249.999675 3750.000000 -158.750000 -158.750000 7.619366 1.106031 45.000000 45.000000 474.383161 -61.273871
299 47518.023675 -159.500000 603.000562 1246.999682 3750.000000 -159.500000 -159.500000 9.178448 0.361515 45.000000 45.000000 475.589514 -61.764522
300 47545.835038 -163.000000 225.000291 568.000174 3750.000000 -163.000000 -163.000000 9.182861 0.573268 45.000000 45.000000 917.237362 -119.667402
301 95101.700634 -163.625000 227.000290 564.000176 3750.000000 -163.750000 -163.500000 9.133285 0.574255 90.000000 90.000000 917.490260 -119.946271
302 47305.333905 -164.250000 1884.999704 714.000110 3750.000000 -164.250000 -164.250000 8.859389 0.492044 45.000000 45.000000 916.314586 109.641205
303 47527.906375 -164.750000 1437.999437 794.000325 3750.000000 -164.750000 -164.750000 7.622014 1.105469 45.000000 45.000000 474.383161 118.726129
304 47520.359312 -165.500000 1438.999436 797.000320 3750.000000 -165.500000 -165.500000 8.308669 0.277216 45.000000 45.000000 473.828435 118.349893
305 47624.634600 -166.500000 618.000370 1393.999650 3750.000000 -166.500000 -166.500000 9.123328 0.159794 45.000000 45.000000 549.180699 -47.361375
306 47536.389234 -167.750000 642.000201 341.000342 3750.000000 -167.750000 -167.750000 7.760975 0.112656 45.000000 45.000000 779.846383 -150.838355
307 47530.159663 -168.000000 1860.999721 560.000161 3750.000000 -168.000000 -168.000000 8.091344 0.091730 45.000000 45.000000 957.791409 118.839622
308 47530.032438 -168.500000 646.000198 339.000343 3750.000000 -168.500000 -168.500000 9.182177 0.112688 45.000000 45.000000 779.656580 -151.166670
309 47521.597476 -168.750000 1864.999721 566.000159 3750.000000 -168.750000 -168.750000 8.125400 0.548817 45.000000 45.000000 958.428080 118.410075
310 47546.396855 -175.000000 1817.999709 1475.999826 3750.000000 -175.000000 -175.000000 9.190656 0.573249 45.000000 45.000000 916.368582 60.301651
311 47624.586955 -175.000000 1424.999630 650.000351 3750.000000 -175.000000 -175.000000 1.531627 0.952953 45.000000 45.000000 548.445477 132.709389
312 95103.361988 -175.625001 1815.499706 1479.999824 3750.000000 -175.750000 -175.500000 9.122411 0.575373 90.000000 90.000000 915.757816 59.991264
313 47075.999095 -177.750000 243.000344 1013.000007 3750.000000 -177.750000 -177.750000 8.045393 0.112881 45.000000 45.000000 779.051644 -90.661924
314 94190.794775 -178.500000 242.000343 1008.000010 7500.000000 -178.500000 -178.500000 7.509773 0.590987 45.000000 45.000000 780.125288 -91.028275
315 47559.494633 -178.750000 627.000211 1693.999659 3750.000000 -178.750000 -178.750000 8.872900 0.645696 45.000000 45.000000 779.492383 -30.446910
316 47567.515126 -179.500000 621.000214 1690.999660 3750.000000 -179.500000 -179.500000 8.992430 0.676017 45.000000 45.000000 779.975239 -30.938560
